Frequency(MHz),Power(dBmV/100kHz)_20260203_084000
107.8981,-23.22
107.9981,-23.97
108.0981,-26.13
108.1981,-29.43
108.2981,-29.05
108.3981,-25.76
108.4981,-24.16
108.5981,-23.97
108.6981,-25.0
108.7981,-26.98
108.8981,-27.92
108.9981,-26.04
109.0981,-24.35
109.1981,-23.97
109.2981,-24.82
109.3981,-26.98
109.4981,-29.24
109.5981,-27.45
109.6981,-24.44
109.7981,-23.22
109.8981,-23.31
109.9981,-24.72
110.0981,-27.73
110.1981,-29.99
110.2981,-27.26
110.3981,-24.72
110.4981,-23.78
110.5981,-24.06
110.6981,-25.57
110.7981,-27.36
110.8981,-26.89
110.9981,-24.91
111.0981,-23.88
111.1981,-23.97
111.2981,-25.38
111.3981,-28.3
111.4981,-29.52
111.5981,-26.42
111.6981,-23.97
111.7981,-23.22
111.8981,-23.78
111.9981,-25.48
112.0981,-28.2
112.1981,-28.39
112.2981,-25.66
112.3981,-24.16
112.4981,-23.97
112.5981,-24.91
112.6981,-26.7
112.7981,-27.83
112.8981,-25.85
112.9981,-24.06
113.0981,-23.5
113.1981,-24.25
113.2981,-26.51
113.3981,-29.99
113.4981,-28.96
113.5981,-25.19
113.6981,-23.31
113.7981,-22.93
113.8981,-23.88
113.9981,-26.04
114.0981,-28.49
114.1981,-27.45
114.2981,-25.1
114.3981,-23.97
114.4981,-24.25
114.5981,-25.76
114.6981,-27.83
114.7981,-27.64
114.8981,-25.1
114.9981,-23.69
115.0981,-23.59
115.1981,-24.72
115.2981,-27.26
115.3981,-29.43
115.4981,-26.79
115.5981,-24.16
115.6981,-23.22
115.7981,-23.5
115.8981,-25.0
115.9981,-27.55
116.0981,-28.11
116.1981,-25.76
116.2981,-24.16
116.3981,-24.06
116.4981,-25.19
116.5981,-27.92
116.6981,-29.52
116.7981,-25.95
116.8981,-23.22
116.9981,-22.18
117.0981,-22.46
117.1981,-24.06
117.2981,-27.55
117.3981,-31.22
117.4981,-27.17
117.5981,-24.16
117.6981,-23.22
117.7981,-23.69
117.8981,-25.29
117.9981,-27.83
118.0981,-27.73
118.1981,-25.48
118.2981,-24.06
118.3981,-23.97
118.4981,-25.1
118.5981,-27.36
118.6981,-28.3
118.7981,-25.57
118.8981,-23.59
118.9981,-22.93
119.0981,-23.69
119.1981,-25.76
119.2981,-29.52
119.3981,-29.24
119.4981,-25.57
119.5981,-23.88
119.6981,-23.78
119.7981,-24.72
119.8981,-26.79
119.9981,-28.02
120.0981,-26.04
120.1981,-24.16
120.2981,-23.59
120.3981,-24.44
120.4981,-26.51
120.5981,-28.86
120.6981,-27.17
120.7981,-24.25
120.8981,-22.84
120.9981,-22.84
121.0981,-24.16
121.1981,-27.08
121.2981,-30.28
121.3981,-27.64
121.4981,-24.63
121.5981,-23.59
121.6981,-23.69
121.7981,-25.1
121.8981,-27.17
121.9981,-27.26
122.0981,-25.19
122.1981,-23.97
122.2981,-23.88
122.3981,-25.1
122.4981,-27.92
122.5981,-29.24
122.6981,-26.13
122.7981,-23.69
122.8981,-22.93
122.9981,-23.4
123.0981,-25.1
123.1981,-28.02
123.2981,-28.86
123.3981,-25.95
123.4981,-24.06
123.5981,-23.78
123.6981,-24.72
123.7981,-26.79
123.8981,-28.2
123.9981,-26.23
124.0981,-24.25
124.1981,-23.5
124.2981,-24.16
124.3981,-26.6
124.4981,-30.56
124.5981,-29.05
124.6981,-25.0
124.7981,-23.03
124.8981,-22.56
124.9981,-23.4
125.0981,-25.76
125.1981,-29.05
125.2981,-28.2
125.3981,-25.48
125.4981,-24.06
125.5981,-24.06
125.6981,-25.48
125.7981,-27.92
125.8981,-28.02
125.9981,-25.38
126.0981,-23.97
126.1981,-23.78
126.2981,-24.72
126.3981,-27.45
126.4981,-30.37
126.5981,-27.26
126.6981,-23.97
126.7981,-22.84
126.8981,-22.93
126.9981,-24.35
127.0981,-27.08
127.1981,-28.86
127.2981,-26.6
127.3981,-24.25
127.4981,-23.78
127.5981,-24.82
127.6981,-27.08
127.7981,-29.05
127.8981,-26.6
127.9981,-23.69
128.0981,-22.75
128.1981,-19.73
128.2981,-21.62
128.3981,-28.49
128.4981,-29.9
128.5981,-25.95
128.6981,-22.84
128.7981,-18.13
128.8981,-18.51
128.9981,-20.39
129.0981,-22.18
129.1981,-23.03
129.2981,-20.77
129.3981,-19.26
129.4981,-18.98
129.5981,-17.85
129.6981,-20.39
129.7981,-19.92
129.8981,-17.66
129.9981,-16.63
130.0981,-17.85
130.1981,-18.32
130.2981,-18.98
130.3981,-22.37
130.4981,-20.96
130.5981,-15.78
130.6981,-14.93
130.7981,-14.56
130.8981,-16.91
130.9981,-18.6
131.0981,-19.73
131.1981,-15.69
131.2981,-13.24
131.3981,-12.2
131.4981,-13.05
131.5981,-14.75
131.6981,-16.72
131.7981,-13.71
131.8981,-7.78
131.9981,0.88
132.0981,4.92
132.1981,6.05
132.2981,3.98
132.3981,0.03
132.4981,5.21
132.5981,7.94
132.6981,9.35
132.7981,9.82
132.8981,6.24
132.9981,5.11
133.0981,4.83
133.1981,6.71
133.2981,8.12
133.3981,8.03
133.4981,6.05
133.5981,2.76
133.6981,-0.16
133.7981,2.19
133.8981,4.55
133.9981,4.64
134.0981,4.08
134.1981,0.97
134.2981,-3.08
134.3981,-3.92
134.4981,-1.57
134.5981,0.78
134.6981,0.5
134.7981,0.22
134.8981,-3.64
134.9981,-5.8
135.0981,-4.3
135.1981,-1.95
135.2981,-1.1
135.3981,-1.29
135.4981,-2.79
135.5981,-7.4
135.6981,-5.99
135.7981,-1.85
135.8981,0.69
135.9981,1.91
136.0981,1.16
136.1981,-2.7
136.2981,-5.9
136.3981,-3.64
136.4981,-0.35
136.5981,2.29
136.6981,1.63
136.7981,-0.25
136.8981,-2.6
136.9981,-1.95
137.0981,0.41
137.1981,2.19
137.2981,1.91
137.3981,0.5
137.4981,-3.92
137.5981,-9.85
137.6981,-10.23
137.7981,-8.72
137.8981,-7.59
137.9981,-3.73
138.0981,-2.42
138.1981,-4.39
138.2981,-5.33
138.3981,-0.91
138.4981,1.91
138.5981,1.82
138.6981,0.78
138.7981,0.03
138.8981,-3.83
138.9981,-1.29
139.0981,1.44
139.1981,3.32
139.2981,2.19
139.3981,0.97
139.4981,-3.83
139.5981,-5.43
139.6981,-0.82
139.7981,2.85
139.8981,3.23
139.9981,1.72
140.0981,-0.53
140.1981,-4.11
140.2981,-3.92
140.3981,-0.72
140.4981,1.44
140.5981,1.07
140.6981,-0.72
140.7981,-1.95
140.8981,-3.36
140.9981,0.5
141.0981,2.57
141.1981,2.95
141.2981,1.16
141.3981,-1.01
141.4981,-5.9
141.5981,-4.86
141.6981,-0.44
141.7981,2.48
141.8981,1.44
141.9981,0.22
142.0981,-2.13
142.1981,-4.77
142.2981,-1.95
142.3981,0.12
142.4981,0.69
142.5981,0.31
142.6981,-1.48
142.7981,-4.2
142.8981,-2.13
142.9981,0.5
143.0981,2.38
143.1981,2.19
143.2981,1.44
143.3981,-3.55
143.4981,-11.26
143.5981,-8.35
143.6981,-7.88
143.7981,-10.6
143.8981,-8.44
143.9981,-6.18
144.0981,-7.03
144.1981,-6.09
144.2981,-0.06
144.3981,1.82
144.4981,2.19
144.5981,0.69
144.6981,-2.89
144.7981,-4.58
144.8981,-0.91
144.9981,1.91
145.0981,2.29
145.1981,2.29
145.2981,0.12
145.3981,-4.02
145.4981,-6.28
145.5981,-0.72
145.6981,1.63
145.7981,2.85
145.8981,1.54
145.9981,-0.25
146.0981,-4.2
146.1981,-2.04
146.2981,0.5
146.3981,2.1
146.4981,1.35
146.5981,-1.57
146.6981,-5.43
146.7981,-3.73
146.8981,-0.35
146.9981,2.1
147.0981,2.57
147.1981,1.82
147.2981,-0.63
147.3981,-4.77
147.4981,-2.89
147.5981,-0.06
147.6981,1.72
147.7981,1.72
147.8981,-0.82
147.9981,-3.36
148.0981,-5.33
148.1981,0.03
148.2981,1.54
148.3981,2.29
148.4981,1.44
148.5981,-2.23
148.6981,-6.28
148.7981,-2.98
148.8981,1.35
148.9981,2.85
149.0981,2.76
149.1981,1.25
149.2981,-2.98
149.3981,-7.69
149.4981,-6.18
149.5981,-5.9
149.6981,-8.53
149.7981,-11.64
149.8981,-10.23
149.9981,-9.48
150.0981,-5.05
150.1981,-1.1
150.2981,1.63
150.3981,1.54
150.4981,-0.25
150.5981,-3.64
150.6981,-5.71
150.7981,-0.82
150.8981,0.88
150.9981,2.29
151.0981,2.48
151.1981,-0.06
151.2981,-4.58
151.3981,-4.3
151.4981,-0.53
151.5981,2.1
151.6981,1.63
151.7981,0.12
151.8981,-1.95
151.9981,-4.2
152.0981,-0.72
152.1981,2.67
152.2981,2.57
152.3981,1.35
152.4981,-2.42
152.5981,-5.99
152.6981,-3.55
152.7981,0.31
152.8981,2.1
152.9981,2.76
153.0981,0.88
153.1981,-1.76
153.2981,-5.05
153.3981,-2.32
153.4981,0.69
153.5981,1.35
153.6981,1.35
153.7981,-0.63
153.8981,-4.39
153.9981,-3.26
154.0981,0.59
154.1981,2.19
154.2981,1.54
154.3981,0.5
154.4981,-2.13
154.5981,-7.97
154.6981,-1.85
154.7981,1.25
154.8981,1.72
154.9981,2.01
155.0981,0.31
155.1981,-4.11
155.2981,-5.62
155.3981,-2.6
155.4981,-3.45
155.5981,-6.37
155.6981,-11.92
155.7981,-15.31
155.8981,-13.24
155.9981,-5.9
156.0981,-0.91
156.1981,1.82
156.2981,2.1
156.3981,0.22
156.4981,-4.96
156.5981,-6.37
156.6981,-0.82
156.7981,2.1
156.8981,2.48
156.9981,2.38
157.0981,-0.25
157.1981,-4.2
157.2981,-3.73
157.3981,0.97
157.4981,2.67
157.5981,1.16
157.6981,0.31
157.7981,-6.18
157.8981,-4.77
157.9981,-0.06
158.0981,2.67
158.1981,3.42
158.2981,1.72
158.3981,-2.04
158.4981,-6.84
158.5981,-4.3
158.6981,-0.25
158.7981,2.1
158.8981,1.72
158.9981,-0.35
159.0981,-2.23
159.1981,-4.3
159.2981,-2.04
159.3981,1.54
159.4981,1.72
159.5981,0.88
159.6981,-3.36
159.7981,-7.59
159.8981,-2.13
159.9981,1.72
160.0981,2.95
160.1981,2.19
160.2981,0.69
160.3981,-3.26
160.4981,-6.65
160.5981,-1.76
160.6981,0.88
160.7981,2.1
160.8981,1.54
160.9981,-1.57
161.0981,-5.99
161.1981,-3.08
161.2981,-1.1
161.3981,-0.82
161.4981,-3.45
161.5981,-9.1
161.6981,-18.89
161.7981,-17.29
161.8981,-7.4
161.9981,-2.04
162.0981,1.07
162.1981,1.54
162.2981,-0.91
162.3981,-5.9
162.4981,-5.33
162.5981,-0.63
162.6981,1.44
162.7981,2.19
162.8981,0.22
162.9981,-2.79
163.0981,-4.58
163.1981,0.5
163.2981,2.01
163.3981,2.95
163.4981,0.97
163.5981,-0.91
163.6981,-6.93
163.7981,-4.2
163.8981,-0.06
163.9981,2.57
164.0981,3.23
164.1981,1.54
164.2981,-1.57
164.3981,-6.18
164.4981,-3.17
164.5981,0.88
164.6981,1.82
164.7981,1.82
164.8981,-0.44
164.9981,-4.49
165.0981,-3.92
165.1981,0.41
165.2981,2.76
165.3981,2.85
165.4981,1.54
165.5981,-3.55
165.6981,-9.85
165.7981,-3.08
165.8981,1.54
165.9981,3.61
166.0981,1.72
166.1981,-0.16
166.2981,-4.58
166.3981,-4.77
166.4981,-0.63
166.5981,1.07
166.6981,1.25
166.7981,0.12
166.8981,-3.45
166.9981,-6.56
167.0981,-2.13
167.1981,1.25
167.2981,0.97
167.3981,-1.66
167.4981,-6.84
167.5981,-17.57
167.6981,-20.77
167.7981,-10.23
167.8981,-3.92
167.9981,0.5
168.0981,0.22
168.1981,-1.38
168.2981,-5.99
168.3981,-2.42
168.4981,0.69
168.5981,2.01
168.6981,1.35
168.7981,-0.35
168.8981,-5.62
168.9981,-5.71
169.0981,-0.06
169.1981,2.57
169.2981,2.67
169.3981,2.29
169.4981,-0.72
169.5981,-8.53
169.6981,-4.2
169.7981,0.41
169.8981,2.85
169.9981,2.38
170.0981,0.5
170.1981,-3.36
170.2981,-5.24
170.3981,-0.82
170.4981,1.44
170.5981,2.1
170.6981,0.88
170.7981,-3.17
170.8981,-8.44
170.9981,-3.36
171.0981,1.25
171.1981,2.19
171.2981,2.19
171.3981,0.97
171.4981,-4.3
171.5981,-8.72
171.6981,-1.66
171.7981,1.07
171.8981,3.04
171.9981,2.38
172.0981,-1.95
172.1981,-5.71
172.2981,-3.92
172.3981,-0.35
172.4981,1.35
172.5981,2.85
172.6981,0.12
172.7981,-6.09
172.8981,-6.09
172.9981,-0.91
173.0981,1.91
173.1981,1.91
173.2981,0.69
173.3981,-4.39
173.4981,-13.71
173.5981,-18.42
173.6981,-13.33
173.7981,-5.9
173.8981,-2.7
173.9981,-1.1
174.0981,-4.86
174.1981,-6.09
174.2981,-1.57
174.3981,1.82
174.4981,2.95
174.5981,1.91
174.6981,-1.38
174.7981,-7.69
174.8981,-3.92
174.9981,0.31
175.0981,1.82
175.1981,2.38
175.2981,1.07
175.3981,-3.08
175.4981,-8.53
175.5981,-3.64
175.6981,0.41
175.7981,2.01
175.8981,1.63
175.9981,-0.82
176.0981,-5.15
176.1981,-2.98
176.2981,0.88
176.3981,2.29
176.4981,2.57
176.5981,0.31
176.6981,-4.2
176.7981,-10.13
176.8981,-1.95
176.9981,1.54
177.0981,3.04
177.1981,2.01
177.2981,-0.44
177.3981,-5.15
177.4981,-6.18
177.5981,-1.01
177.6981,1.44
177.7981,1.72
177.8981,0.31
177.9981,-3.64
178.0981,-6.75
178.1981,-1.48
178.2981,2.01
178.3981,3.14
178.4981,1.91
178.5981,-0.25
178.6981,-7.78
178.7981,-7.97
178.8981,-0.44
178.9981,1.72
179.0981,2.38
179.1981,0.78
179.2981,-4.11
179.3981,-11.17
179.4981,-12.02
179.5981,-12.68
179.6981,-9.19
179.7981,-5.24
179.8981,-5.15
179.9981,-9.29
180.0981,-6.37
180.1981,0.41
180.2981,2.67
180.3981,2.76
180.4981,1.25
180.5981,-3.08
180.6981,-10.6
180.7981,-2.79
180.8981,1.54
180.9981,3.32
181.0981,2.57
181.1981,0.22
181.2981,-4.11
181.3981,-6.75
181.4981,-1.29
181.5981,1.16
181.6981,1.35
181.7981,0.69
181.8981,-2.79
181.9981,-9.1
182.0981,-2.98
182.1981,1.35
182.2981,2.57
182.3981,3.14
182.4981,0.22
182.5981,-4.39
182.6981,-9.1
182.7981,-1.85
182.8981,1.91
182.9981,2.67
183.0981,1.54
183.1981,-1.48
183.2981,-7.4
183.3981,-4.3
183.4981,-0.06
183.5981,0.69
183.6981,2.01
183.7981,0.22
183.8981,-6.65
183.9981,-6.93
184.0981,-0.06
184.1981,2.85
184.2981,2.85
184.3981,2.85
184.4981,-1.01
184.5981,-7.59
184.6981,-5.43
184.7981,0.41
184.8981,1.16
184.9981,1.25
185.0981,0.31
185.1981,-6.56
185.2981,-10.04
185.3981,-7.59
185.4981,-10.13
185.5981,-12.02
185.6981,-8.53
185.7981,-8.16
185.8981,-13.8
185.9981,-5.9
186.0981,0.31
186.1981,2.67
186.2981,3.42
186.3981,1.16
186.4981,-3.55
186.5981,-9.0
186.6981,-2.51
186.7981,1.16
186.8981,1.82
186.9981,1.44
187.0981,-1.48
187.1981,-6.65
187.2981,-3.45
187.3981,0.41
187.4981,2.01
187.5981,2.29
187.6981,0.03
187.7981,-5.99
187.8981,-9.85
187.9981,-1.76
188.0981,2.1
188.1981,2.38
188.2981,2.38
188.3981,-0.06
188.4981,-6.46
188.5981,-5.99
188.6981,-1.01
188.7981,1.25
188.8981,2.1
188.9981,-0.16
189.0981,-3.92
189.1981,-5.99
189.2981,-1.01
189.3981,2.1
189.4981,3.32
189.5981,1.07
189.6981,-2.6
189.7981,-9.85
189.8981,-5.52
189.9981,-0.06
190.0981,1.82
190.1981,2.19
190.2981,1.35
190.3981,-2.23
190.4981,-7.97
190.5981,-3.92
190.6981,-0.82
190.7981,1.91
190.8981,1.44
190.9981,-1.48
191.0981,-8.16
191.1981,-7.5
191.2981,-4.68
191.3981,-4.77
191.4981,-9.19
191.5981,-11.26
191.6981,-12.2
191.7981,-17.1
191.8981,-5.24
191.9981,-1.19
192.0981,2.57
192.1981,2.1
192.2981,0.03
192.3981,-4.77
192.4981,-5.71
192.5981,-0.91
192.6981,1.82
192.7981,1.54
192.8981,0.03
192.9981,-4.77
193.0981,-9.48
193.1981,-2.79
193.2981,2.29
193.3981,3.51
193.4981,2.1
193.5981,0.03
193.6981,-6.84
193.7981,-7.59
193.8981,-0.63
193.9981,1.07
194.0981,1.82
194.1981,1.35
194.2981,-1.66
194.3981,-7.59
194.4981,-4.2
194.5981,-0.06
194.6981,1.63
194.7981,0.78
194.8981,-2.23
194.9981,-9.1
195.0981,-5.43
195.1981,0.12
195.2981,2.85
195.3981,3.32
195.4981,1.82
195.5981,-1.66
195.6981,-9.95
195.7981,-5.62
195.8981,-0.16
195.9981,2.1
196.0981,2.1
196.1981,-0.82
196.2981,-5.62
196.3981,-7.22
196.4981,-1.48
196.5981,1.54
196.6981,2.67
196.7981,1.07
196.8981,-3.17
196.9981,-11.64
197.0981,-4.49
197.1981,-1.38
197.2981,-2.42
197.3981,-5.99
197.4981,-12.39
197.5981,-16.35
197.6981,-16.91
197.7981,-6.93
197.8981,-1.01
197.9981,1.54
198.0981,0.22
198.1981,-2.42
198.2981,-7.97
198.3981,-3.08
198.4981,0.78
198.5981,1.91
198.6981,2.19
198.7981,-0.72
198.8981,-5.71
198.9981,-9.85
199.0981,-0.91
199.1981,1.54
199.2981,2.19
199.3981,1.91
199.4981,-0.72
199.5981,-9.48
199.6981,-6.93
199.7981,-1.29
199.8981,1.91
199.9981,1.44
200.0981,1.07
200.1981,-4.39
200.2981,-6.93
200.3981,-1.57
200.4981,1.54
200.5981,2.29
200.6981,1.54
200.7981,-2.32
200.8981,-12.49
200.9981,-5.99
201.0981,0.12
201.1981,2.29
201.2981,2.29
201.3981,1.16
201.4981,-2.42
201.5981,-10.13
201.6981,-2.79
201.7981,0.5
201.8981,1.35
201.9981,1.44
202.0981,-1.57
202.1981,-7.97
202.2981,-4.96
202.3981,-0.06
202.4981,2.1
202.5981,2.38
202.6981,0.69
202.7981,-4.58
202.8981,-14.46
202.9981,-2.6
203.0981,-0.82
203.1981,-0.82
203.2981,-3.64
203.3981,-10.79
203.4981,-20.02
203.5981,-15.97
203.6981,-6.93
203.7981,-1.66
203.8981,0.5
203.9981,-1.19
204.0981,-6.09
204.1981,-9.19
204.2981,-1.95
204.3981,1.35
204.4981,2.85
204.5981,1.82
204.6981,-0.91
204.7981,-8.82
204.8981,-7.88
204.9981,-0.72
205.0981,1.91
205.1981,2.76
205.2981,1.07
205.3981,-2.7
205.4981,-8.91
205.5981,-3.17
205.6981,-0.53
205.7981,1.07
205.8981,1.35
205.9981,-2.79
206.0981,-10.23
206.1981,-5.8
206.2981,-0.63
206.3981,2.19
206.4981,2.85
206.5981,2.85
206.6981,-1.66
206.7981,-12.96
206.8981,-4.49
206.9981,-0.53
207.0981,1.91
207.1981,1.16
207.2981,-0.16
207.3981,-5.9
207.4981,-6.75
207.5981,-0.82
207.6981,1.72
207.7981,1.63
207.8981,1.25
207.9981,-4.49
208.0981,-11.17
208.1981,-2.6
208.2981,2.48
208.3981,2.67
208.4981,1.72
208.5981,0.88
208.6981,-6.37
208.7981,-10.42
208.8981,-1.95
208.9981,0.31
209.0981,0.12
209.1981,-2.13
209.2981,-10.04
209.3981,-20.2
209.4981,-16.16
209.5981,-6.93
209.6981,-2.32
209.7981,-1.38
209.8981,-2.04
209.9981,-8.25
210.0981,-8.63
210.1981,-0.63
210.2981,2.01
210.3981,3.14
210.4981,1.72
210.5981,-1.85
210.6981,-9.76
210.7981,-7.12
210.8981,-0.72
210.9981,1.07
211.0981,1.82
211.1981,-1.38
211.2981,-5.71
211.3981,-6.56
211.4981,-0.72
211.5981,1.16
211.6981,2.57
211.7981,0.59
211.8981,-4.02
211.9981,-12.68
212.0981,-4.39
212.1981,0.69
212.2981,2.38
212.3981,2.76
212.4981,0.69
212.5981,-4.2
212.6981,-9.38
212.7981,-3.36
212.8981,0.5
212.9981,1.16
213.0981,1.35
213.1981,-3.64
213.2981,-9.0
213.3981,-5.15
213.4981,0.31
213.5981,2.67
213.6981,2.19
213.7981,-0.06
213.8981,-6.37
213.9981,-11.64
214.0981,-2.13
214.1981,1.54
214.2981,2.85
214.3981,1.44
214.4981,-1.29
214.5981,-7.03
214.6981,-6.46
214.7981,-1.19
214.8981,0.5
214.9981,0.97
215.0981,-3.36
215.1981,-11.55
215.2981,-15.97
215.3981,-14.84
215.4981,-10.79
215.5981,-3.92
215.6981,-2.42
215.7981,-4.86
215.8981,-11.73
215.9981,-6.84
216.0981,-0.72
216.1981,1.82
216.2981,1.72
216.3981,0.97
216.4981,-4.11
216.5981,-8.63
216.6981,-2.7
216.7981,0.12
216.8981,1.07
216.9981,-0.06
217.0981,-3.83
217.1981,-11.08
217.2981,-4.11
217.3981,0.31
217.4981,2.48
217.5981,3.32
217.6981,0.22
217.7981,-4.86
217.8981,-12.3
217.9981,-3.83
218.0981,0.5
218.1981,1.63
218.2981,1.16
218.3981,-2.6
218.4981,-8.44
218.5981,-6.28
218.6981,-1.66
218.7981,0.69
218.8981,1.25
218.9981,-0.44
219.0981,-6.37
219.1981,-9.85
219.2981,-1.66
219.3981,2.01
219.4981,3.32
219.5981,2.1
219.6981,0.31
219.7981,-6.75
219.8981,-9.66
219.9981,-1.66
220.0981,1.54
220.1981,2.1
220.2981,-0.16
220.3981,-4.3
220.4981,-8.44
220.5981,-3.55
220.6981,0.22
220.7981,2.19
220.8981,0.69
220.9981,-4.2
221.0981,-14.56
221.1981,-12.2
221.2981,-9.29
221.3981,-11.55
221.4981,-7.69
221.5981,-5.62
221.6981,-5.9
221.7981,-13.43
221.8981,-6.18
221.9981,-0.72
222.0981,1.54
222.1981,1.35
222.2981,-2.04
222.3981,-7.69
222.4981,-6.28
222.5981,0.12
222.6981,1.72
222.7981,0.97
222.8981,-0.16
222.9981,-4.58
223.0981,-13.52
223.1981,-3.73
223.2981,0.69
223.3981,1.91
223.4981,2.67
223.5981,0.5
223.6981,-6.56
223.7981,-9.66
223.8981,-2.7
223.9981,0.88
224.0981,2.01
224.1981,-0.25
224.2981,-4.11
224.3981,-8.16
224.4981,-2.6
224.5981,1.16
224.6981,2.48
224.7981,1.72
224.8981,-1.1
224.9981,-9.19
225.0981,-9.38
225.1981,-0.91
225.2981,2.19
225.3981,2.29
225.4981,0.69
225.5981,-2.42
225.6981,-8.82
225.7981,-4.02
225.8981,0.41
225.9981,1.44
226.0981,1.35
226.1981,-1.48
226.2981,-8.53
226.3981,-7.12
226.4981,-1.19
226.5981,1.72
226.6981,2.76
226.7981,0.88
226.8981,-5.62
226.9981,-17.19
227.0981,-7.88
227.1981,-6.56
227.2981,-9.76
227.3981,-11.55
227.4981,-8.63
227.5981,-10.04
227.6981,-10.42
227.7981,-2.89
227.8981,-0.53
227.9981,0.97
228.0981,0.03
228.1981,-4.3
228.2981,-11.26
228.3981,-4.02
228.4981,-0.06
228.5981,2.57
228.6981,1.63
228.7981,-0.06
228.8981,-7.22
228.9981,-10.6
229.0981,-1.76
229.1981,1.35
229.2981,2.1
229.3981,1.54
229.4981,-2.13
229.5981,-9.1
229.6981,-5.52
229.7981,-0.53
229.8981,1.72
229.9981,0.88
230.0981,-1.57
230.1981,-7.59
230.2981,-9.19
230.3981,-0.82
230.4981,0.88
230.5981,2.19
230.6981,1.35
230.7981,-2.32
230.8981,-10.13
230.9981,-7.22
231.0981,-0.53
231.1981,1.72
231.2981,0.88
231.3981,-0.63
231.4981,-5.05
231.5981,-7.97
231.6981,-2.04
231.7981,1.16
231.8981,1.25
231.9981,-0.16
232.0981,-3.36
232.1981,-12.39
232.2981,-4.49
232.3981,0.41
232.4981,2.48
232.5981,1.91
232.6981,0.5
232.7981,-4.86
232.8981,-12.86
232.9981,-5.33
233.0981,-3.92
233.1981,-6.56
233.2981,-10.79
233.3981,-13.62
233.4981,-15.31
233.5981,-10.89
233.6981,-3.08
233.7981,0.78
233.8981,1.63
233.9981,-0.72
234.0981,-6.28
234.1981,-11.64
234.2981,-3.64
234.3981,0.59
234.4981,1.91
234.5981,1.44
234.6981,-1.57
234.7981,-9.1
234.8981,-6.56
234.9981,-0.44
235.0981,0.78
235.1981,1.82
235.2981,-0.06
235.3981,-4.39
235.4981,-7.69
235.5981,-1.85
235.6981,0.5
235.7981,1.54
235.8981,0.22
235.9981,-2.98
236.0981,-13.33
236.1981,-5.52
236.2981,0.12
236.3981,1.82
236.4981,2.85
236.5981,0.78
236.6981,-2.79
236.7981,-8.44
236.8981,-3.26
236.9981,0.12
237.0981,0.97
237.1981,-0.16
237.2981,-2.23
237.3981,-8.91
237.4981,-5.52
237.5981,-0.72
237.6981,1.35
237.7981,2.01
237.8981,0.41
237.9981,-4.86
238.0981,-15.4
238.1981,-3.73
238.2981,0.78
238.3981,2.48
238.4981,1.91
238.5981,-0.44
238.6981,-6.93
238.7981,-7.12
238.8981,-3.92
238.9981,-3.92
239.0981,-5.05
239.1981,-10.42
239.2981,-19.17
239.3981,-19.73
239.4981,-8.25
239.5981,-2.32
239.6981,0.5
239.7981,0.97
239.8981,-1.48
239.9981,-8.16
240.0981,-8.72
240.1981,-1.76
240.2981,0.59
240.3981,1.63
240.4981,0.88
240.5981,-3.64
240.6981,-8.91
240.7981,-4.02
240.8981,-0.16
240.9981,1.07
241.0981,-0.16
241.1981,-3.83
241.2981,-9.85
241.3981,-4.77
241.4981,-0.25
241.5981,1.63
241.6981,2.57
241.7981,1.72
241.8981,-3.26
241.9981,-12.49
242.0981,-4.68
242.1981,-0.44
242.2981,1.25
242.3981,2.01
242.4981,-1.1
242.5981,-7.12
242.6981,-6.28
242.7981,-1.57
242.8981,0.97
242.9981,1.35
243.0981,-1.01
243.1981,-5.8
243.2981,-10.79
243.3981,-2.32
243.4981,1.16
243.5981,1.54
243.6981,2.48
243.7981,-0.82
243.8981,-6.65
243.9981,-9.66
244.0981,-2.32
244.1981,0.31
244.2981,0.88
244.3981,0.22
244.4981,-3.55
244.5981,-8.06
244.6981,-3.36
244.7981,-0.16
244.8981,0.03
244.9981,-2.42
245.0981,-9.38
245.1981,-21.43
245.2981,-20.58
245.3981,-9.57
245.4981,-3.92
245.5981,0.22
245.6981,-0.44
245.7981,-3.08
245.8981,-10.79
245.9981,-4.68
246.0981,-0.44
246.1981,0.78
246.2981,0.12
246.3981,-1.48
246.4981,-6.37
246.5981,-5.99
246.6981,-1.19
246.7981,1.16
246.8981,0.97
246.9981,0.5
247.0981,-4.39
247.1981,-12.39
247.2981,-3.26
247.3981,0.5
247.4981,3.04
247.5981,1.91
247.6981,-0.82
247.7981,-6.18
247.8981,-8.35
247.9981,-1.76
248.0981,0.41
248.1981,1.16
248.2981,-0.16
248.3981,-4.2
248.4981,-8.72
248.5981,-4.02
248.6981,0.59
248.7981,1.44
248.8981,0.69
248.9981,-1.66
249.0981,-9.29
249.1981,-8.82
249.2981,-0.72
249.3981,1.91
249.4981,3.61
249.5981,1.63
249.6981,-3.26
249.7981,-8.16
249.8981,-5.43
249.9981,-1.19
250.0981,0.12
250.1981,1.16
250.2981,-2.13
250.3981,-10.13
250.4981,-5.52
250.5981,-0.82
250.6981,1.35
250.7981,1.07
250.8981,-0.63
250.9981,-8.44
251.0981,-22.93
251.1981,-17.29
251.2981,-12.3
251.3981,-6.18
251.4981,-2.32
251.5981,-2.23
251.6981,-6.75
251.7981,-8.06
251.8981,-1.85
251.9981,0.88
252.0981,1.44
252.1981,-0.25
252.2981,-5.05
252.3981,-11.73
252.4981,-4.2
252.5981,0.5
252.6981,2.29
252.7981,2.48
252.8981,-0.35
252.9981,-5.9
253.0981,-11.08
253.1981,-2.7
253.2981,0.5
253.3981,2.85
253.4981,0.97
253.5981,-3.73
253.6981,-9.29
253.7981,-4.39
253.8981,-0.44
253.9981,1.44
254.0981,1.54
254.1981,-1.95
254.2981,-9.95
254.3981,-7.59
254.4981,-1.01
254.5981,3.14
254.6981,2.57
254.7981,3.14
254.8981,-1.76
254.9981,-11.73
255.0981,-7.69
255.1981,-1.19
255.2981,1.82
255.3981,1.25
255.4981,-0.63
255.5981,-5.43
255.6981,-8.82
255.7981,-1.66
255.8981,1.54
255.9981,1.82
256.0981,0.88
256.1981,-3.64
256.2981,-14.65
256.3981,-5.24
256.4981,1.25
256.5981,2.1
256.6981,1.91
256.7981,-1.01
256.8981,-9.0
256.9981,-17.38
257.0981,-12.11
257.1981,-12.77
257.2981,-9.0
257.3981,-5.8
257.4981,-6.46
257.5981,-10.51
257.6981,-4.68
257.7981,-0.44
257.8981,1.82
257.9981,2.1
258.0981,-1.01
258.1981,-7.78
258.2981,-10.6
258.3981,-1.76
258.4981,2.38
258.5981,2.19
258.6981,1.63
258.7981,-1.48
258.8981,-9.66
258.9981,-5.99
259.0981,-0.44
259.1981,1.44
259.2981,1.91
259.3981,-0.91
259.4981,-6.93
259.5981,-7.5
259.6981,-1.29
259.7981,1.44
259.8981,3.32
259.9981,1.07
260.0981,-1.95
260.1981,-15.22
260.2981,-5.62
260.3981,0.12
260.4981,2.01
260.5981,3.04
260.6981,0.59
260.7981,-4.2
260.8981,-10.42
260.9981,-3.45
261.0981,-0.25
261.1981,1.63
261.2981,0.31
261.3981,-2.98
261.4981,-11.26
261.5981,-5.62
261.6981,0.78
261.7981,1.82
261.8981,2.38
261.9981,0.22
262.0981,-5.9
262.1981,-14.75
262.2981,-2.51
262.3981,2.1
262.4981,2.95
262.5981,1.63
262.6981,-2.32
262.7981,-9.29
262.8981,-10.32
262.9981,-7.59
263.0981,-9.29
263.1981,-11.26
263.2981,-9.57
263.3981,-11.36
263.4981,-13.71
263.5981,-3.83
263.6981,1.72
263.7981,3.04
263.8981,2.19
263.9981,-1.1
264.0981,-9.95
264.1981,-8.44
264.2981,-1.38
264.3981,1.82
264.4981,2.76
264.5981,0.5
264.6981,-3.92
264.7981,-10.6
264.8981,-3.55
264.9981,0.5
265.0981,1.91
265.1981,1.25
265.2981,-2.89
265.3981,-12.39
265.4981,-6.28
265.5981,0.03
265.6981,2.38
265.7981,2.85
265.8981,1.44
265.9981,-3.83
266.0981,-14.37
266.1981,-4.39
266.2981,-0.06
266.3981,2.29
266.4981,1.44
266.5981,-2.51
266.6981,-9.0
266.7981,-6.09
266.8981,-0.16
266.9981,2.1
267.0981,1.91
267.1981,0.03
267.2981,-5.33
267.3981,-12.49
267.4981,-3.17
267.5981,1.54
267.6981,2.67
267.7981,1.54
267.8981,-1.19
267.9981,-8.72
268.0981,-9.95
268.1981,-2.13
268.2981,1.44
268.3981,2.1
268.4981,-0.91
268.5981,-5.43
268.6981,-9.66
268.7981,-4.39
268.8981,-2.79
268.9981,-5.15
269.0981,-11.08
269.1981,-15.03
269.2981,-19.83
269.3981,-11.17
269.4981,-3.08
269.5981,2.01
269.6981,3.32
269.7981,1.44
269.8981,-2.79
269.9981,-13.99
270.0981,-4.11
270.1981,0.03
270.2981,2.19
270.3981,0.22
270.4981,-1.85
270.5981,-10.32
270.6981,-5.43
270.7981,-0.06
270.8981,2.29
270.9981,2.67
271.0981,0.78
271.1981,-3.83
271.2981,-22.93
271.3981,-3.92
271.4981,1.44
271.5981,2.95
271.6981,2.85
271.7981,-0.53
271.8981,-7.4
271.9981,-9.38
272.0981,-1.66
272.1981,1.25
272.2981,1.54
272.3981,-0.35
272.4981,-5.43
272.5981,-12.11
272.6981,-3.17
272.7981,1.63
272.8981,3.14
272.9981,3.32
273.0981,-0.44
273.1981,-8.06
273.2981,-11.36
273.3981,-1.38
273.4981,2.38
273.5981,1.91
273.6981,1.72
273.7981,-2.51
273.8981,-11.92
273.9981,-4.86
274.0981,-0.25
274.1981,1.63
274.2981,0.97
274.3981,-1.85
274.4981,-10.98
274.5981,-8.44
274.6981,-1.19
274.7981,-1.1
274.8981,-1.95
274.9981,-6.93
275.0981,-16.53
275.1981,-29.52
275.2981,-11.55
275.3981,-4.11
275.4981,0.03
275.5981,2.1
275.6981,-0.82
275.7981,-8.06
275.8981,-9.66
275.9981,-2.32
276.0981,1.72
276.1981,2.67
276.2981,0.5
276.3981,-4.86
276.4981,-15.78
276.5981,-3.36
276.6981,1.25
276.7981,3.51
276.8981,3.32
276.9981,-0.16
277.0981,-6.56
277.1981,-12.49
277.2981,-1.57
277.3981,1.16
277.4981,2.29
277.5981,1.07
277.6981,-4.39
277.7981,-13.15
277.8981,-4.2
277.9981,1.25
278.0981,1.63
278.1981,2.29
278.2981,-1.29
278.3981,-10.42
278.4981,-8.25
278.5981,0.22
278.6981,2.1
278.7981,3.04
278.8981,1.25
278.9981,-2.13
279.0981,-17.1
279.1981,-5.8
279.2981,0.88
279.3981,3.14
279.4981,1.16
279.5981,-0.91
279.6981,-9.29
279.7981,-9.95
279.8981,-0.63
279.9981,1.91
280.0981,2.57
280.1981,1.63
280.2981,-2.98
280.3981,-23.97
280.4981,-5.24
280.5981,0.97
280.6981,1.63
280.7981,-0.72
280.8981,-5.15
280.9981,-15.31
281.0981,-29.99
281.1981,-12.3
281.2981,-3.83
281.3981,0.5
281.4981,-0.16
281.5981,-4.58
281.6981,-14.46
281.7981,-4.77
281.8981,0.69
281.9981,3.42
282.0981,1.91
282.1981,-0.63
282.2981,-7.03
282.3981,-12.96
282.4981,-1.85
282.5981,2.67
282.6981,3.32
282.7981,2.29
282.8981,-0.72
282.9981,-11.17
283.0981,-6.65
283.1981,0.31
283.2981,1.16
283.3981,1.25
283.4981,-0.72
283.5981,-7.88
283.6981,-10.23
283.7981,-1.48
283.8981,2.67
283.9981,3.14
284.0981,3.14
284.1981,-0.16
284.2981,-13.8
284.3981,-5.9
284.4981,0.41
284.5981,2.67
284.6981,3.14
284.7981,1.25
284.8981,-4.58
284.9981,-15.78
285.0981,-2.7
285.1981,2.19
285.2981,2.67
285.3981,1.54
285.4981,-3.26
285.5981,-20.11
285.6981,-5.33
285.7981,0.78
285.8981,3.42
285.9981,3.04
286.0981,1.35
286.1981,-3.92
286.2981,-20.58
286.3981,-2.7
286.4981,1.63
286.5981,2.95
286.6981,1.44
286.7981,-4.11
286.8981,-17.48
286.9981,-21.05
287.0981,-12.96
287.1981,-4.86
287.2981,-2.13
287.3981,-2.51
287.4981,-7.03
287.5981,-15.78
287.6981,-1.95
287.7981,2.38
287.8981,4.08
287.9981,3.14
288.0981,-0.16
288.1981,-7.97
288.2981,-9.57
288.3981,-1.66
288.4981,1.91
288.5981,2.48
288.6981,0.59
288.7981,-4.58
288.8981,-17.0
288.9981,-2.79
289.0981,1.16
289.1981,2.1
289.2981,1.07
289.3981,-1.38
289.4981,-13.43
289.5981,-6.09
289.6981,0.5
289.7981,2.57
289.8981,3.51
289.9981,2.48
290.0981,-1.66
290.1981,-20.3
290.2981,-4.96
290.3981,0.97
290.4981,2.1
290.5981,2.19
290.6981,-1.19
290.7981,-11.08
290.8981,-8.06
290.9981,-1.01
291.0981,2.67
291.1981,3.14
291.2981,1.63
291.3981,-3.64
291.4981,-26.6
291.5981,-3.08
291.6981,1.63
291.7981,3.7
291.8981,3.04
291.9981,0.31
292.0981,-7.69
292.1981,-12.2
292.2981,-1.01
292.3981,1.54
292.4981,2.67
292.5981,0.31
292.6981,-7.12
292.7981,-26.32
292.8981,-11.73
292.9981,-11.83
293.0981,-8.06
293.1981,-3.64
293.2981,-3.73
293.3981,-9.85
293.4981,-11.08
293.5981,-0.53
293.6981,2.76
293.7981,3.61
293.8981,1.44
293.9981,-2.79
294.0981,-16.82
294.1981,-6.28
294.2981,0.22
294.3981,2.57
294.4981,1.35
294.5981,-1.38
294.6981,-10.13
294.7981,-9.66
294.8981,-0.63
294.9981,2.01
295.0981,3.42
295.1981,2.29
295.2981,-2.51
295.3981,-17.29
295.4981,-5.15
295.5981,0.97
295.6981,2.57
295.7981,2.57
295.8981,0.12
295.9981,-6.46
296.0981,-12.96
296.1981,-1.66
296.2981,2.57
296.3981,2.76
296.4981,0.88
296.5981,-3.83
296.6981,-35.92
296.7981,-2.89
296.8981,1.91
296.9981,2.76
297.0981,3.23
297.1981,0.97
297.2981,-5.52
297.3981,-12.77
297.4981,-1.57
297.5981,1.16
297.6981,3.7
297.7981,2.57
297.8981,-0.44
297.9981,-15.03
298.0981,-6.65
298.1981,-0.53
298.2981,1.82
298.3981,1.35
298.4981,-0.44
298.5981,-8.91
298.6981,-15.88
298.7981,-7.97
298.8981,-8.35
298.9981,-11.36
299.8981,-9.66
299.9981,-11.55
300.0981,-8.63
300.1981,-8.35
300.2981,-16.91
300.3981,-9.48
300.4981,-0.35
300.5981,2.67
300.6981,3.14
300.7981,0.31
300.8981,-4.96
300.9981,-17.38
301.0981,-2.6
301.1981,1.07
301.2981,2.67
301.3981,2.01
301.4981,-2.89
301.5981,-18.04
301.6981,-5.05
301.7981,1.44
301.8981,4.27
301.9981,3.89
302.0981,1.72
302.1981,-4.11
302.2981,-23.22
302.3981,-4.2
302.4981,1.07
302.5981,3.61
302.6981,1.82
302.7981,-2.32
302.8981,-14.56
302.9981,-6.09
303.0981,0.5
303.1981,3.42
303.2981,3.42
303.3981,0.97
303.4981,-4.96
303.5981,-13.05
303.6981,-1.01
303.7981,3.14
303.8981,3.23
303.9981,2.67
304.0981,-0.72
304.1981,-9.48
304.2981,-8.72
304.3981,0.03
304.4981,2.1
304.5981,2.19
304.6981,-0.06
304.7981,-5.62
304.8981,-14.93
304.9981,-1.19
305.0981,2.01
305.1981,3.42
305.2981,2.29
305.3981,-1.19
305.4981,-12.49
305.5981,-9.29
305.6981,-3.92
305.7981,-4.11
305.8981,-8.06
305.9981,-11.45
306.0981,-11.17
306.1981,-34.42
306.2981,-7.31
306.3981,-0.72
306.4981,2.85
306.5981,2.01
306.6981,-1.57
306.7981,-13.52
306.8981,-6.46
306.9981,1.07
307.0981,3.51
307.1981,3.98
307.2981,2.38
307.3981,-3.64
307.4981,-15.69
307.5981,-2.98
307.6981,2.01
307.7981,3.14
307.8981,3.32
307.9981,0.78
308.0981,-7.4
308.1981,-10.7
308.2981,-0.72
308.3981,2.67
308.4981,4.27
308.5981,0.97
308.6981,-4.96
308.7981,-17.85
308.8981,-1.95
308.9981,1.91
309.0981,3.89
309.1981,2.67
309.2981,0.69
309.3981,-7.5
309.4981,-8.16
309.5981,0.41
309.6981,2.67
309.7981,3.79
309.8981,2.95
309.9981,-2.51
310.0981,-23.78
310.1981,-4.58
310.2981,1.44
310.3981,3.23
310.4981,2.95
310.5981,-0.91
310.6981,-9.0
310.7981,-7.12
310.8981,0.31
310.9981,2.57
311.0981,4.45
311.1981,2.95
311.2981,-1.95
311.3981,-15.78
311.4981,-4.96
311.5981,-1.1
311.6981,-2.32
311.7981,-5.33
311.8981,-12.86
311.9981,-18.79
312.0981,-18.23
312.1981,-4.77
312.2981,-0.25
312.3981,2.85
312.4981,1.91
312.5981,-3.26
312.6981,-15.31
312.7981,-2.42
312.8981,2.19
312.9981,3.79
313.0981,3.89
313.1981,1.54
313.2981,-5.05
313.3981,-11.55
313.4981,-0.63
313.5981,2.95
313.6981,3.04
313.7981,2.1
313.8981,-2.79
313.9981,-19.36
314.0981,-4.11
314.1981,0.69
314.2981,3.42
314.3981,2.85
314.4981,0.12
314.5981,-5.71
314.6981,-8.82
314.7981,-0.25
314.8981,3.32
314.9981,5.21
315.0981,3.42
315.1981,-0.16
315.2981,-9.38
315.3981,-6.56
315.4981,0.88
315.5981,3.7
315.6981,2.95
315.7981,0.78
315.8981,-5.71
315.9981,-13.52
316.0981,-1.19
316.1981,2.57
316.2981,3.98
316.3981,2.1
316.4981,-1.19
316.5981,-10.32
316.6981,-3.73
316.7981,2.29
316.8981,4.36
316.9981,3.98
317.0981,2.1
317.1981,-4.02
317.2981,-16.06
317.3981,-1.85
317.4981,0.78
317.5981,-0.16
317.6981,-4.11
317.7981,-10.79
317.8981,-28.3
317.9981,-15.22
318.0981,-3.73
318.1981,0.12
318.2981,2.19
318.3981,0.69
318.4981,-3.26
318.5981,-9.66
318.6981,-0.44
318.7981,2.01
318.8981,3.51
318.9981,3.51
319.0981,-0.16
319.1981,-9.57
319.2981,-7.4
319.3981,0.41
319.4981,2.57
319.5981,3.98
319.6981,1.72
319.7981,-3.92
319.8981,-12.96
319.9981,-1.1
320.0981,3.98
320.1981,4.17
320.2981,3.51
320.3981,0.12
320.4981,-7.03
320.5981,-6.75
320.6981,0.59
320.7981,3.14
320.8981,4.17
320.9981,1.44
321.0981,-3.36
321.1981,-25.19
321.2981,-3.17
321.3981,2.1
321.4981,2.85
321.5981,2.48
321.6981,-0.72
321.7981,-9.76
321.8981,-4.49
321.9981,2.29
322.0981,4.45
322.1981,4.27
322.2981,2.38
322.3981,-1.19
322.4981,-10.7
322.5981,-2.13
322.6981,1.91
322.7981,4.27
322.8981,2.29
322.9981,-0.16
323.0981,-7.22
323.1981,-8.82
323.2981,0.03
323.3981,2.85
323.4981,1.63
323.5981,-1.48
323.6981,-10.32
323.7981,-22.56
323.8981,-14.46
323.9981,-5.71
324.0981,-1.1
324.1981,1.35
324.2981,0.31
324.3981,-5.9
324.4981,-8.63
324.5981,-0.06
324.6981,3.14
324.7981,4.36
324.8981,2.48
324.9981,-2.42
325.0981,-18.23
325.1981,-3.83
325.2981,1.91
325.3981,3.23
325.4981,3.51
325.5981,0.12
325.6981,-6.84
325.7981,-6.46
325.8981,1.25
325.9981,3.51
326.0981,4.27
326.1981,3.89
326.2981,-1.01
326.3981,-11.26
326.4981,-5.43
326.5981,1.63
326.6981,3.89
326.7981,3.04
326.8981,-0.25
326.9981,-7.69
327.0981,-8.06
327.1981,0.97
327.2981,2.57
327.3981,3.23
327.4981,3.14
327.5981,-1.76
327.6981,-9.85
327.7981,-3.55
327.8981,3.14
327.9981,4.17
328.0981,4.27
328.1981,2.38
328.2981,-3.55
328.3981,-11.64
328.4981,-0.63
328.5981,3.51
328.6981,3.42
328.7981,1.35
328.8981,-2.51
328.9981,-15.22
329.0981,-3.26
329.1981,2.1
329.2981,4.36
329.3981,2.38
329.4981,-1.1
329.5981,-8.25
329.6981,-15.97
329.7981,-12.86
329.8981,-8.82
329.9981,-3.64
330.0981,-1.19
330.1981,-3.08
330.2981,-11.08
330.3981,-6.65
330.4981,0.59
330.5981,2.48
330.6981,3.14
330.7981,1.44
330.8981,-5.8
330.9981,-9.1
331.0981,0.78
331.1981,3.14
331.2981,5.11
331.3981,2.95
331.4981,0.12
331.5981,-7.03
331.6981,-3.55
331.7981,1.91
331.8981,4.17
331.9981,3.61
332.0981,1.25
332.1981,-3.64
332.2981,-12.86
332.3981,-0.72
332.4981,3.14
332.5981,3.98
332.6981,2.38
332.7981,0.22
332.8981,-9.57
332.9981,-3.26
333.0981,2.01
333.1981,3.89
333.2981,4.27
333.3981,3.23
333.4981,-1.01
333.5981,-8.91
333.6981,-0.44
333.7981,2.85
333.8981,4.17
333.9981,2.48
334.0981,-0.63
334.1981,-8.82
334.2981,-5.99
334.3981,0.88
334.4981,3.61
334.5981,3.79
334.6981,1.82
334.7981,-3.64
334.8981,-9.19
334.9981,-0.53
335.0981,3.04
335.1981,4.08
335.2981,3.14
335.3981,-0.82
335.4981,-8.63
335.5981,-11.17
335.6981,-8.82
335.7981,-9.57
335.8981,-6.37
335.9981,-4.2
336.0981,-5.99
336.1981,-13.52
336.2981,-2.13
336.3981,2.95
336.4981,3.98
336.5981,3.42
336.6981,0.22
336.7981,-6.75
336.8981,-3.73
336.9981,1.82
337.0981,4.92
337.1981,4.45
337.2981,4.17
337.3981,-0.63
337.4981,-9.57
337.5981,-2.6
337.6981,2.19
337.7981,3.51
337.8981,3.42
337.9981,-0.16
338.0981,-7.97
338.1981,-6.46
338.2981,0.97
338.3981,4.64
338.4981,3.89
338.5981,3.32
338.6981,-1.19
338.7981,-7.12
338.8981,-1.1
338.9981,3.61
339.0981,4.74
339.1981,4.92
339.2981,2.57
339.3981,-4.49
339.4981,-8.35
339.5981,-0.35
339.6981,3.42
339.7981,4.45
339.8981,2.67
339.9981,-2.23
340.0981,-9.76
340.1981,-0.91
340.2981,2.67
340.3981,3.79
340.4981,4.36
340.5981,1.91
340.6981,-3.26
340.7981,-5.52
340.8981,0.59
340.9981,3.89
341.0981,5.68
341.1981,3.51
341.2981,-1.38
341.3981,-11.08
341.4981,-7.5
341.5981,-4.68
341.6981,-6.75
341.7981,-9.66
341.8981,-7.78
341.9981,-11.17
342.0981,-9.57
342.1981,-0.25
342.2981,4.45
342.3981,3.98
342.4981,2.76
342.5981,-0.25
342.6981,-5.8
342.7981,-2.13
342.8981,1.54
342.9981,4.08
343.0981,4.08
343.1981,2.1
343.2981,-3.36
343.3981,-9.29
343.4981,-0.91
343.5981,3.32
343.6981,4.55
343.7981,3.98
343.8981,0.03
343.9981,-7.69
344.0981,-2.79
344.1981,2.38
344.2981,4.74
344.3981,4.45
344.4981,2.57
344.5981,-1.66
344.6981,-6.09
344.7981,0.03
344.8981,3.79
344.9981,4.27
345.0981,4.74
345.1981,0.88
345.2981,-7.22
345.3981,-4.68
345.4981,1.63
345.5981,3.51
345.6981,3.98
345.7981,1.82
345.8981,-2.7
345.9981,-6.65
346.0981,0.78
346.1981,4.55
346.2981,4.55
346.3981,3.7
346.4981,1.35
346.5981,-4.68
346.6981,-3.08
346.7981,1.91
346.8981,4.74
346.9981,4.83
347.0981,2.48
347.1981,-2.98
347.2981,-10.42
347.3981,-3.73
347.4981,-1.95
347.5981,-2.7
347.6981,-8.63
347.7981,-11.26
347.8981,-12.49
347.9981,-9.76
348.0981,-0.44
348.1981,3.04
348.2981,4.08
348.3981,2.29
348.4981,-2.32
348.5981,-10.32
348.6981,-1.95
348.7981,2.48
348.8981,3.61
348.9981,3.32
349.0981,-0.53
349.1981,-9.66
349.2981,-4.68
349.3981,2.1
349.4981,3.61
349.5981,4.55
349.6981,2.38
349.7981,-2.79
349.8981,-6.28
349.9981,0.5
350.0981,4.27
350.1981,5.58
350.2981,5.02
350.3981,2.19
350.4981,-2.42
350.5981,-2.79
350.6981,1.72
350.7981,5.11
350.8981,5.68
350.9981,3.42
351.0981,0.41
351.1981,-6.37
351.2981,-1.66
351.3981,4.17
351.4981,4.45
351.5981,5.11
351.6981,1.16
351.7981,-3.26
351.8981,-4.39
351.9981,1.72
352.0981,4.92
352.1981,5.39
352.2981,3.32
352.3981,0.31
352.4981,-6.84
352.5981,-2.13
352.6981,2.95
352.7981,4.83
352.8981,4.64
352.9981,2.29
353.0981,-3.17
353.1981,-7.5
353.2981,-0.82
353.3981,1.16
353.4981,-1.1
353.5981,-6.18
353.6981,-14.28
353.7981,-17.1
353.8981,-6.93
353.9981,-0.44
354.0981,2.76
354.1981,3.89
354.2981,3.51
354.3981,-2.42
354.4981,-8.16
354.5981,-0.06
354.6981,3.51
354.7981,4.83
354.8981,3.42
354.9981,-1.29
355.0981,-6.37
355.1981,-0.35
355.2981,3.7
355.3981,4.36
355.4981,4.74
355.5981,3.51
355.6981,-1.48
355.7981,-4.68
355.8981,0.69
355.9981,3.42
356.0981,4.45
356.1981,4.45
356.2981,1.44
356.3981,-5.52
356.4981,-4.58
356.5981,1.44
356.6981,4.08
356.7981,3.51
356.8981,2.19
356.9981,-2.32
357.0981,-4.3
357.1981,1.72
357.2981,4.83
357.3981,5.3
357.4981,5.02
357.5981,1.44
357.6981,-4.11
357.7981,-2.89
357.8981,3.04
357.9981,4.45
358.0981,3.23
358.1981,2.38
358.2981,-2.6
358.3981,-7.22
358.4981,-0.35
358.5981,3.32
358.6981,5.58
358.7981,3.23
358.8981,-0.25
358.9981,-4.96
359.0981,-2.98
359.1981,1.82
359.2981,2.76
359.3981,1.07
359.4981,-3.36
359.5981,-11.83
359.6981,-20.11
359.7981,-10.23
359.8981,-2.13
359.9981,2.01
360.0981,1.82
360.1981,0.03
360.2981,-5.8
360.3981,-2.98
360.4981,2.1
360.5981,5.68
360.6981,4.36
360.7981,2.95
360.8981,-0.16
360.9981,-4.39
361.0981,-0.25
361.1981,3.98
361.2981,5.77
361.3981,5.02
361.4981,2.19
361.5981,-2.79
361.6981,-3.64
361.7981,1.54
361.8981,4.08
361.9981,4.92
362.0981,3.04
362.1981,-1.01
362.2981,-4.96
362.3981,0.69
362.4981,4.27
362.5981,5.87
362.6981,4.74
362.7981,2.19
362.8981,-1.66
362.9981,-3.08
363.0981,2.29
363.1981,4.92
363.2981,5.49
363.3981,4.08
363.4981,1.35
363.5981,-5.24
363.6981,-1.29
363.7981,2.85
363.8981,4.55
363.9981,4.45
364.0981,1.91
364.1981,-3.36
364.2981,-3.36
364.3981,2.57
364.4981,5.21
364.5981,5.39
364.6981,5.11
364.7981,0.12
364.8981,-4.02
364.9981,-1.48
365.0981,2.48
365.1981,4.55
365.2981,2.67
365.3981,-2.04
365.4981,-10.79
365.5981,-17.76
365.6981,-11.73
365.7981,-3.73
365.8981,-0.16
365.9981,1.54
366.0981,-0.35
366.1981,-5.24
366.2981,-1.19
366.3981,3.98
366.4981,5.21
366.5981,4.64
366.6981,3.7
366.7981,0.12
366.8981,-3.55
366.9981,2.1
367.0981,4.92
367.1981,4.64
367.2981,4.27
367.3981,0.69
367.4981,-5.33
367.5981,-0.91
367.6981,4.45
367.7981,4.92
367.8981,4.92
367.9981,2.85
368.0981,-1.57
368.1981,-3.83
368.2981,1.54
368.3981,3.98
368.4981,5.11
368.5981,4.64
368.6981,1.54
368.7981,-3.64
368.8981,-1.95
368.9981,3.04
369.0981,4.08
369.1981,4.64
369.2981,3.51
369.3981,-2.04
369.4981,-5.9
369.5981,0.41
369.6981,3.04
369.7981,5.3
369.8981,3.89
369.9981,1.82
370.0981,-3.64
370.1981,-1.38
370.2981,3.61
370.3981,5.21
370.4981,5.58
370.5981,4.36
370.6981,0.41
370.7981,-3.55
370.8981,-0.53
370.9981,3.79
371.0981,5.11
371.1981,2.85
371.2981,-1.29
371.3981,-8.82
371.4981,-10.7
371.5981,-10.32
371.6981,-6.18
371.7981,-1.01
371.8981,0.5
371.9981,-1.01
372.0981,-2.79
372.1981,1.25
372.2981,4.17
372.3981,5.87
372.4981,4.27
372.5981,2.01
372.6981,-1.38
372.7981,-2.7
372.8981,1.54
372.9981,4.74
373.0981,4.92
373.1981,3.42
373.2981,-1.38
373.3981,-4.86
373.4981,0.5
373.5981,5.02
373.6981,5.11
373.7981,5.77
373.8981,3.32
373.9981,-0.72
374.0981,-2.13
374.1981,2.48
374.2981,4.64
374.3981,5.68
374.4981,4.17
374.5981,1.35
374.6981,-3.92
374.7981,-0.25
374.8981,2.85
374.9981,4.92
375.0981,5.02
375.1981,3.23
375.2981,-1.85
375.3981,-2.51
375.4981,2.19
375.5981,4.55
375.6981,5.21
375.7981,4.36
375.8981,2.76
375.9981,-2.23
376.0981,0.12
376.1981,4.64
376.2981,4.64
376.3981,5.21
376.4981,2.67
376.5981,-1.19
376.6981,-3.17
376.7981,0.5
376.8981,3.98
376.9981,4.17
377.0981,3.32
377.1981,-1.66
377.2981,-6.09
377.3981,-6.65
377.4981,-6.46
377.5981,-7.59
377.6981,-3.73
377.7981,-2.13
377.8981,-2.51
377.9981,-3.64
378.0981,1.44
378.1981,5.39
378.2981,5.02
378.3981,4.64
378.4981,1.54
378.5981,-4.3
378.6981,-3.45
378.7981,2.67
378.8981,5.02
378.9981,4.45
379.0981,3.42
379.1981,-1.48
379.2981,-2.98
379.3981,0.88
379.4981,4.08
379.5981,5.58
379.6981,5.77
379.7981,2.48
379.8981,-2.79
379.9981,-1.76
380.0981,3.04
380.1981,5.68
380.2981,5.39
380.3981,4.08
380.4981,-0.91
380.5981,-4.86
380.6981,-0.06
380.7981,4.74
380.8981,5.68
380.9981,3.79
381.0981,1.25
381.1981,-1.95
381.2981,0.22
381.3981,3.89
381.4981,5.39
381.5981,5.49
381.6981,4.92
381.7981,1.63
381.8981,-3.64
381.9981,-0.63
382.0981,2.85
382.1981,4.92
382.2981,4.83
382.3981,0.78
382.4981,-3.92
382.5981,-2.51
382.6981,3.04
382.7981,4.74
382.8981,5.11
382.9981,3.23
383.0981,-0.91
383.1981,-4.96
383.2981,-2.6
383.3981,-2.79
383.4981,-6.18
383.5981,-7.31
383.6981,-4.86
383.7981,-5.33
383.8981,-5.24
383.9981,-0.82
384.0981,3.89
384.1981,4.55
384.2981,3.04
384.3981,-0.72
384.4981,-5.24
384.5981,0.31
384.6981,4.27
384.7981,5.77
384.8981,4.55
384.9981,2.29
385.0981,-1.1
385.1981,-1.85
385.2981,2.1
385.3981,5.39
385.4981,5.11
385.5981,4.17
385.6981,2.1
385.7981,-2.89
385.8981,-1.76
385.9981,2.85
386.0981,4.55
386.1981,4.92
386.2981,2.1
386.3981,-3.08
386.4981,-4.02
386.5981,1.25
386.6981,5.21
386.7981,5.68
386.8981,4.64
386.9981,1.25
387.0981,-2.79
387.1981,-0.72
387.2981,3.14
387.3981,5.11
387.4981,4.74
387.5981,2.29
387.6981,-1.19
387.7981,-3.92
387.8981,0.88
387.9981,3.79
388.0981,5.11
388.1981,3.14
388.2981,0.22
388.3981,-4.3
388.4981,-0.82
388.5981,3.42
388.6981,5.68
388.7981,5.87
388.8981,4.27
388.9981,-0.72
389.0981,-3.17
389.1981,-1.57
389.2981,-1.01
389.3981,-4.3
389.4981,-9.76
389.5981,-11.08
389.6981,-12.02
389.7981,-7.59
389.8981,-0.35
389.9981,3.7
390.0981,3.79
390.1981,2.48
390.2981,-1.85
390.3981,-3.64
390.4981,0.88
390.5981,4.74
390.6981,5.11
390.7981,5.3
390.8981,2.57
390.9981,-1.76
391.0981,-1.57
391.1981,2.38
391.2981,3.98
391.3981,4.92
391.4981,3.51
391.5981,-1.19
391.6981,-7.03
391.7981,-0.72
391.8981,3.51
391.9981,4.74
392.0981,4.08
392.1981,1.54
392.2981,-3.64
392.3981,-1.66
392.4981,3.32
392.5981,5.11
392.6981,4.83
392.7981,4.55
392.8981,0.78
392.9981,-3.36
393.0981,-0.44
393.1981,3.61
393.2981,3.98
393.3981,4.64
393.4981,1.72
393.5981,-4.39
393.6981,-5.05
393.7981,1.63
393.8981,4.17
393.9981,4.45
394.0981,2.67
394.1981,0.03
394.2981,-3.26
394.3981,0.5
394.4981,3.98
394.5981,5.11
394.6981,4.64
394.7981,2.38
394.8981,-3.08
394.9981,-5.33
395.0981,-2.04
395.1981,-0.35
395.2981,-1.48
395.3981,-7.69
395.4981,-14.75
395.5981,-16.35
395.6981,-8.16
395.7981,-0.72
395.8981,3.14
395.9981,3.89
396.0981,2.48
396.1981,-2.79
396.2981,-2.98
396.3981,1.54
396.4981,5.58
396.5981,5.39
396.6981,4.45
396.7981,0.97
396.8981,-4.49
396.9981,-2.51
397.0981,2.01
397.1981,4.36
397.2981,4.08
397.3981,2.48
397.4981,-2.98
397.5981,-5.24
397.6981,1.07
397.7981,4.55
397.8981,5.11
397.9981,4.27
398.0981,1.25
398.1981,-3.64
398.2981,-0.44
398.3981,2.95
398.4981,4.55
398.5981,5.11
398.6981,2.95
398.7981,-1.85
398.8981,-6.37
398.9981,-1.38
399.0981,2.29
399.1981,3.7
399.2981,3.32
399.3981,-0.44
399.4981,-6.28
399.5981,-1.76
399.6981,2.57
399.7981,5.02
399.8981,4.45
399.9981,2.76
400.0981,-1.76
400.1981,-3.26
400.2981,0.78
400.3981,3.7
400.4981,4.74
400.5981,3.51
400.6981,0.03
400.7981,-4.96
400.8981,-4.58
400.9981,-0.53
401.0981,0.69
401.1981,-0.35
401.2981,-5.8
401.3981,-14.28
401.4981,-18.89
401.5981,-8.35
401.6981,-1.66
401.7981,1.07
401.8981,2.29
401.9981,1.44
402.0981,-3.92
402.1981,-2.79
402.2981,2.29
402.3981,4.45
402.4981,4.17
402.5981,3.14
402.6981,-1.38
402.7981,-7.88
402.8981,-1.19
402.9981,2.57
403.0981,4.45
403.1981,4.36
403.2981,1.07
403.3981,-4.11
403.4981,-2.6
403.5981,2.29
403.6981,5.3
403.7981,4.17
403.8981,3.32
403.9981,-0.06
404.0981,-4.3
404.1981,-0.72
404.2981,2.95
404.3981,4.64
404.4981,3.51
404.5981,2.1
404.6981,-4.58
404.7981,-5.9
404.8981,0.31
404.9981,3.23
405.0981,4.08
405.1981,2.48
405.2981,-1.01
405.3981,-4.77
405.4981,0.41
405.5981,3.89
405.6981,5.21
405.7981,4.45
405.8981,1.82
405.9981,-2.98
406.0981,-5.71
406.1981,-0.06
406.2981,3.23
406.3981,4.08
406.4981,2.67
406.5981,-1.57
406.6981,-7.31
406.7981,-2.04
406.8981,2.48
406.9981,2.95
407.0981,0.03
407.1981,-4.39
407.2981,-12.2
407.3981,-17.38
407.4981,-10.51
407.5981,-2.79
407.6981,0.5
407.7981,1.25
407.8981,-0.44
407.9981,-5.15
408.0981,-3.36
408.1981,1.91
408.2981,3.32
408.3981,3.89
408.4981,1.07
408.5981,-4.49
408.6981,-5.99
408.7981,1.25
408.8981,4.27
408.9981,4.08
409.0981,3.32
409.1981,0.69
409.2981,-3.73
409.3981,-2.42
409.4981,2.29
409.5981,4.64
409.6981,4.36
409.7981,3.04
409.8981,-1.19
409.9981,-6.93
410.0981,-0.72
410.1981,1.82
410.2981,3.7
410.3981,1.91
410.4981,-0.82
410.5981,-8.25
410.6981,-2.7
410.7981,1.91
410.8981,3.23
410.9981,4.45
411.0981,1.72
411.1981,-1.57
411.2981,-5.15
411.3981,0.03
411.4981,3.32
411.5981,3.32
411.6981,2.76
411.7981,0.22
411.8981,-5.8
411.9981,-4.96
412.0981,0.12
412.1981,3.61
412.2981,3.98
412.3981,1.91
412.4981,-2.6
412.5981,-7.31
412.6981,-0.06
412.7981,2.85
412.8981,3.89
412.9981,2.48
413.0981,-2.04
413.1981,-10.13
413.2981,-14.28
413.3981,-13.15
413.4981,-7.31
413.5981,-2.13
413.6981,-1.66
413.7981,-3.92
413.8981,-11.45
413.9981,-2.89
414.0981,1.72
414.1981,3.32
414.2981,3.51
414.3981,0.03
414.4981,-5.62
414.5981,-5.05
414.6981,1.25
414.7981,4.08
414.8981,3.32
414.9981,2.67
415.0981,-1.29
415.1981,-7.4
415.2981,-2.79
415.3981,1.54
415.4981,3.14
415.5981,3.42
415.6981,0.88
415.7981,-7.78
415.8981,-8.44
415.9981,-0.35
416.0981,2.95
416.1981,3.14
416.2981,2.29
416.3981,-2.79
416.4981,-6.93
416.5981,-1.38
416.6981,1.25
416.7981,4.36
416.8981,4.08
416.9981,1.82
417.0981,-4.2
417.1981,-7.5
417.2981,-0.72
417.3981,1.91
417.4981,3.04
417.5981,1.91
417.6981,-2.98
417.7981,-13.52
417.8981,-3.83
417.9981,1.07
418.0981,4.08
418.1981,1.72
418.2981,0.12
418.3981,-5.15
418.4981,-5.43
418.5981,0.41
418.6981,3.61
418.7981,3.89
418.8981,2.48
418.9981,-3.08
419.0981,-12.39
419.1981,-12.2
419.2981,-11.36
419.3981,-11.08
419.4981,-7.4
419.5981,-5.52
419.6981,-9.66
419.7981,-9.0
419.8981,0.31
419.9981,3.04
420.0981,3.32
420.1981,2.48
420.2981,-1.19
420.3981,-8.16
420.4981,-4.2
420.5981,1.07
420.6981,3.04
420.7981,3.51
420.8981,0.97
420.9981,-4.86
421.0981,-11.17
421.1981,-2.6
421.2981,1.54
421.3981,2.38
421.4981,1.63
421.5981,-2.89
421.6981,-12.49
421.7981,-3.73
421.8981,0.12
421.9981,3.23
422.0981,2.85
422.1981,1.07
422.2981,-3.55
422.3981,-6.18
422.4981,-0.63
422.5981,1.82
422.6981,4.08
422.7981,2.95
422.8981,-1.29
422.9981,-9.48
423.0981,-5.62
423.1981,0.41
423.2981,2.48
423.3981,1.82
423.4981,0.78
423.5981,-5.05
423.6981,-8.91
423.7981,-1.01
423.8981,3.04
423.9981,4.27
424.0981,2.85
424.1981,0.31
424.2981,-5.33
424.3981,-3.83
424.4981,0.22
424.5981,3.23
424.6981,3.23
424.7981,-0.06
424.8981,-6.18
424.9981,-15.4
425.0981,-7.31
425.1981,-5.71
425.2981,-9.95
425.3981,-10.04
425.4981,-8.44
425.5981,-13.43
425.6981,-7.22
425.7981,-0.25
425.8981,2.29
425.9981,3.51
426.0981,2.29
426.1981,-2.79
426.2981,-8.16
426.3981,-2.04
426.4981,2.19
426.5981,3.32
426.6981,2.76
426.7981,-0.53
426.8981,-9.29
426.9981,-7.97
427.0981,-0.82
427.1981,2.67
427.2981,2.76
427.3981,0.03
427.4981,-4.11
427.5981,-8.16
427.6981,-0.72
427.7981,2.29
427.8981,3.61
427.9981,3.14
428.0981,0.97
428.1981,-4.96
428.2981,-7.59
428.3981,-0.63
428.4981,1.91
428.5981,3.23
428.6981,1.35
428.7981,-2.98
428.8981,-14.65
428.9981,-3.64
429.0981,1.35
429.1981,2.1
429.2981,1.91
429.3981,-1.1
429.4981,-7.5
429.5981,-5.24
429.6981,1.35
429.7981,3.79
429.8981,3.04
429.9981,2.95
430.0981,-1.19
430.1981,-9.1
430.2981,-5.15
430.3981,0.22
430.4981,1.25
430.5981,1.25
430.6981,-1.29
430.7981,-9.57
430.8981,-9.1
430.9981,-4.2
431.0981,-3.73
431.1981,-6.75
431.2981,-11.73
431.3981,-12.49
431.4981,-14.46
431.5981,-5.99
431.6981,0.97
431.7981,2.76
431.8981,3.23
431.9981,1.54
432.0981,-5.05
432.1981,-11.83
432.2981,-2.7
432.3981,1.16
432.4981,2.38
432.5981,1.63
432.6981,-4.11
432.7981,-11.64
432.8981,-3.36
432.9981,2.01
433.0981,3.23
433.1981,2.57
433.2981,0.12
433.3981,-4.11
433.4981,-6.75
433.5981,-0.53
433.6981,2.48
433.7981,3.14
433.8981,2.01
433.9981,-1.29
434.0981,-10.32
434.1981,-7.31
434.2981,-1.38
434.3981,0.69
434.4981,2.1
434.5981,-0.72
434.6981,-8.35
434.7981,-7.88
434.8981,0.03
434.9981,2.76
435.0981,2.67
435.1981,2.01
435.2981,-1.76
435.3981,-7.31
435.4981,-4.58
435.5981,0.41
435.6981,3.23
435.7981,3.32
435.8981,0.41
435.9981,-4.58
436.0981,-13.9
436.1981,-2.79
436.2981,1.25
436.3981,2.1
436.4981,0.78
436.5981,-3.36
436.6981,-11.26
436.7981,-5.43
436.8981,-1.29
436.9981,-1.19
437.0981,-2.79
437.1981,-10.32
437.2981,-16.35
437.3981,-18.89
437.4981,-8.35
437.5981,-1.57
437.6981,1.07
437.7981,1.07
437.8981,-2.6
437.9981,-12.02
438.0981,-8.53
438.1981,-1.1
438.2981,1.25
438.3981,2.1
438.4981,-0.06
438.5981,-4.96
438.6981,-9.1
438.7981,-1.48
438.8981,1.72
438.9981,3.23
439.0981,1.91
439.1981,-0.06
439.2981,-7.97
439.3981,-7.69
439.4981,-1.1
439.5981,1.63
439.6981,1.91
439.7981,-1.01
439.8981,-5.33
439.9981,-13.62
440.0981,-2.89
440.1981,2.29
440.2981,2.85
440.3981,2.48
440.4981,-1.01
440.5981,-7.78
440.6981,-5.15
440.7981,-0.35
440.8981,2.95
440.9981,2.95
441.0981,2.29
441.1981,-2.32
441.2981,-11.83
441.3981,-5.8
441.4981,0.31
441.5981,1.72
441.6981,1.72
441.7981,-2.23
441.8981,-10.7
441.9981,-8.53
442.0981,-0.25
442.1981,2.19
442.2981,2.38
442.3981,1.54
442.4981,-2.89
442.5981,-9.38
442.6981,-3.26
442.7981,0.31
442.8981,0.31
442.9981,-2.32
443.0981,-7.5
443.1981,-19.36
443.2981,-23.97
443.3981,-10.32
443.4981,-3.45
443.5981,-1.38
443.6981,-1.66
443.7981,-6.09
443.8981,-16.82
443.9981,-4.68
444.0981,0.12
444.1981,1.72
444.2981,1.91
444.3981,-0.16
444.4981,-5.99
444.5981,-8.72
444.6981,-1.66
444.7981,1.35
444.8981,2.19
444.9981,0.41
445.0981,-2.79
445.1981,-12.86
445.2981,-7.5
445.3981,-1.66
445.4981,1.25
445.5981,0.41
445.6981,-2.13
445.7981,-10.7
445.8981,-8.91
445.9981,-1.1
446.0981,2.01
446.1981,2.76
446.2981,2.48
446.3981,-1.01
446.4981,-8.35
446.5981,-4.96
446.6981,0.03
446.7981,2.29
446.8981,2.38
446.9981,-1.01
447.0981,-7.5
447.1981,-15.03
447.2981,-2.6
447.3981,0.78
447.4981,0.97
447.5981,0.41
447.6981,-3.08
447.7981,-13.05
447.8981,-4.96
447.9981,0.5
448.0981,2.57
448.1981,3.23
448.2981,0.88
448.3981,-4.02
448.4981,-10.23
448.5981,-2.79
448.6981,0.31
448.7981,0.59
448.8981,-2.23
448.9981,-8.82
449.0981,-23.22
449.1981,-21.43
449.2981,-12.11
449.3981,-4.77
449.4981,-1.76
449.5981,-2.32
449.6981,-7.78
449.7981,-10.51
449.8981,-2.89
449.9981,1.35
450.0981,2.95
450.1981,1.91
450.2981,-2.13
450.3981,-10.89
450.4981,-7.88
450.5981,-1.38
450.6981,0.69
450.7981,1.82
450.8981,-0.25
450.9981,-6.09
451.0981,-20.49
451.1981,-3.83
451.2981,-0.63
451.3981,0.88
451.4981,-0.53
451.5981,-4.11
451.6981,-11.45
451.7981,-5.71
451.8981,0.12
451.9981,1.82
452.0981,1.82
452.1981,0.59
452.2981,-3.92
452.3981,-16.82
452.4981,-4.49
452.5981,-0.63
452.6981,0.78
452.7981,0.78
452.8981,-3.45
452.9981,-17.0
453.0981,-7.78
453.1981,-0.25
453.2981,0.78
453.3981,1.07
453.4981,-0.72
453.5981,-5.52
453.6981,-10.04
453.7981,-2.32
453.8981,0.78
453.9981,2.29
454.0981,1.63
454.1981,-0.72
454.2981,-7.4
454.3981,-13.52
454.4981,-3.08
454.5981,-0.06
454.6981,-0.44
454.7981,-2.32
454.8981,-10.23
454.9981,-23.5
455.0981,-15.03
455.1981,-12.68
455.2981,-7.59
455.3981,-4.39
455.4981,-4.11
455.5981,-10.98
455.6981,-8.16
455.7981,-0.44
455.8981,0.59
455.9981,1.82
456.0981,0.59
456.1981,-4.2
456.2981,-26.6
456.3981,-5.43
456.4981,-0.63
456.5981,0.78
456.6981,0.12
456.7981,-3.83
456.8981,-15.03
456.9981,-6.93
457.0981,-0.35
457.1981,2.01
457.2981,2.48
457.3981,0.88
457.4981,-4.68
457.5981,-10.98
457.6981,-3.36
457.7981,0.78
457.8981,2.19
457.9981,0.88
458.0981,-1.57
458.1981,-8.25
458.2981,-10.79
458.3981,-3.17
458.4981,0.22
458.5981,1.07
458.6981,-1.48
458.7981,-5.9
458.8981,-13.62
458.9981,-2.98
459.0981,-0.06
459.1981,1.54
459.2981,2.38
459.3981,-0.91
459.4981,-6.46
459.5981,-9.1
459.6981,-1.66
459.7981,0.97
459.8981,2.38
459.9981,0.12
460.0981,-3.73
460.1981,-17.29
460.2981,-6.93
460.3981,-0.35
460.4981,1.16
460.5981,0.88
460.6981,-2.7
460.7981,-10.42
460.8981,-12.39
460.9981,-9.1
461.0981,-11.45
461.1981,-10.98
461.2981,-5.99
461.3981,-5.71
461.4981,-13.71
461.5981,-8.91
461.6981,-1.29
461.7981,0.59
461.8981,0.88
461.9981,-1.57
462.0981,-10.13
462.1981,-12.68
462.2981,-2.7
462.3981,0.59
462.4981,1.16
462.5981,-0.35
462.6981,-3.45
462.7981,-11.26
462.8981,-4.39
462.9981,-0.16
463.0981,2.1
463.1981,2.67
463.2981,0.03
463.3981,-5.8
463.4981,-13.05
463.5981,-4.49
463.6981,-0.16
463.7981,1.07
463.8981,-1.1
463.9981,-4.2
464.0981,-17.19
464.1981,-6.56
464.2981,-0.63
464.3981,0.88
464.4981,1.07
464.5981,-1.1
464.6981,-6.75
464.7981,-9.29
464.8981,-1.19
464.9981,2.29
465.0981,2.38
465.1981,1.54
465.2981,-2.6
465.3981,-11.64
465.4981,-9.29
465.5981,-1.85
465.6981,-0.16
465.7981,0.31
465.8981,-0.91
465.9981,-7.88
466.0981,-10.89
466.1981,-2.79
466.2981,1.54
466.3981,2.19
466.4981,1.91
466.5981,-0.82
466.6981,-8.63
466.7981,-8.35
466.8981,-6.28
466.9981,-7.59
467.0981,-11.64
467.1981,-11.08
467.2981,-10.04
467.3981,-19.92
467.4981,-7.69
467.5981,-1.85
467.6981,0.97
467.7981,0.5
467.8981,-3.55
467.9981,-13.52
468.0981,-7.03
468.1981,-0.16
468.2981,2.1
468.3981,2.1
468.4981,0.78
468.5981,-4.49
468.6981,-10.32
468.7981,-4.58
468.8981,-0.44
468.9981,1.44
469.0981,1.63
469.1981,-1.66
469.2981,-8.72
469.3981,-12.39
469.4981,-1.95
469.5981,-0.25
469.6981,0.41
469.7981,-1.66
469.8981,-6.65
469.9981,-17.1
470.0981,-4.02
470.1981,0.03
470.2981,1.82
470.3981,1.44
470.4981,-1.01
470.5981,-6.84
470.6981,-8.16
470.7981,-1.38
470.8981,0.88
470.9981,0.5
471.0981,0.12
471.1981,-4.96
471.2981,-24.82
471.3981,-5.71
471.4981,-1.29
471.5981,1.16
471.6981,0.12
471.7981,-2.79
471.8981,-8.82
471.9981,-6.56
472.0981,-1.1
472.1981,2.57
472.2981,1.91
472.3981,0.97
472.4981,-1.76
472.5981,-11.36
472.6981,-8.35
472.7981,-5.43
472.8981,-5.43
472.9981,-9.57
473.0981,-14.65
473.1981,-18.23
473.2981,-19.83
473.3981,-6.28
473.4981,-0.63
473.5981,-0.06
473.6981,-0.35
473.7981,-4.39
473.8981,-10.79
473.9981,-3.92
474.0981,0.59
474.1981,3.32
474.2981,2.57
474.3981,0.22
474.4981,-5.71
474.5981,-13.52
474.6981,-4.49
474.7981,-0.44
474.8981,-0.06
474.9981,0.59
475.0981,-2.6
475.1981,-15.31
475.2981,-8.16
475.3981,-1.85
475.4981,0.88
475.5981,0.12
475.6981,-1.57
475.7981,-7.12
475.8981,-8.44
475.9981,-2.98
476.0981,1.07
476.1981,1.91
476.2981,0.69
476.3981,-2.89
476.4981,-10.13
476.5981,-8.91
476.6981,-1.85
476.7981,0.12
476.8981,0.03
476.9981,-2.51
477.0981,-8.63
477.1981,-14.46
477.2981,-3.55
477.3981,0.12
477.4981,0.88
477.5981,0.41
477.6981,-2.51
477.7981,-9.57
477.8981,-5.99
477.9981,-0.91
478.0981,1.63
478.1981,1.44
478.2981,-0.25
478.3981,-5.15
478.4981,-18.04
478.5981,-7.22
478.6981,-2.98
478.7981,-4.02
478.8981,-7.78
478.9981,-16.63
479.0981,-28.68
479.1981,-14.65
479.2981,-5.8
479.3981,-1.85
479.4981,0.22
479.5981,-0.06
479.6981,-4.11
479.7981,-12.3
479.8981,-4.68
479.9981,-0.53
480.0981,0.22
480.1981,0.69
480.2981,-3.17
480.3981,-9.29
480.4981,-15.4
480.5981,-4.77
480.6981,-0.82
480.7981,-0.16
480.8981,-2.79
480.9981,-9.57
481.0981,-13.43
481.1981,-3.83
481.2981,-0.44
481.3981,0.5
481.4981,0.41
481.5981,-1.85
481.6981,-9.1
481.7981,-10.32
481.8981,-3.73
481.9981,0.59
482.0981,1.07
482.1981,-0.72
482.2981,-6.18
482.3981,-32.82
482.4981,-7.03
482.5981,-2.13
482.6981,-1.01
482.7981,-1.01
482.8981,-4.58
482.9981,-15.12
483.0981,-6.56
483.1981,-0.72
483.2981,1.54
483.3981,1.82
483.4981,0.59
483.5981,-3.92
483.6981,-12.11
483.7981,-6.46
483.8981,-1.66
483.9981,-0.16
484.0981,-0.25
484.1981,-3.08
484.2981,-10.79
484.3981,-13.33
484.4981,-3.45
484.5981,-1.48
484.6981,-2.6
484.7981,-7.12
484.8981,-14.75
484.9981,-27.45
485.0981,-16.06
485.1981,-6.75
485.2981,-3.08
485.3981,-1.76
485.4981,-1.95
485.5981,-7.78
485.6981,-15.4
485.7981,-4.39
485.8981,-1.48
485.9981,-0.53
486.0981,-1.85
486.1981,-7.4
486.2981,-22.65
486.3981,-5.05
486.4981,-0.72
486.5981,0.41
486.6981,0.5
486.7981,-2.98
486.8981,-9.66
486.9981,-6.75
487.0981,-0.53
487.1981,1.07
487.2981,1.72
487.3981,-0.06
487.4981,-3.92
487.5981,-12.39
487.6981,-7.78
487.7981,-1.29
487.8981,-0.35
487.9981,-0.63
488.0981,-3.45
488.1981,-12.11
488.2981,-10.04
488.3981,-2.6
488.4981,0.03
488.5981,-0.35
488.6981,0.31
488.7981,-4.49
488.8981,-11.73
488.9981,-4.2
489.0981,0.03
489.1981,1.25
489.2981,0.97
489.3981,-1.29
489.4981,-5.52
489.5981,-14.18
489.6981,-3.83
489.7981,-1.66
489.8981,0.12
489.9981,-1.38
490.0981,-5.52
490.1981,-17.0
490.2981,-5.9
490.3981,-1.38
490.4981,0.5
490.5981,-1.1
490.6981,-4.86
490.7981,-12.39
490.8981,-21.05
490.9981,-17.38
491.8981,-21.8
491.9981,-18.7
492.0981,-10.98
492.1981,-5.52
492.2981,-3.45
492.3981,-4.77
492.4981,-11.64
492.5981,-12.02
492.6981,-3.83
492.7981,-0.44
492.8981,-1.29
492.9981,-3.08
493.0981,-11.08
493.1981,-11.36
493.2981,-2.32
493.3981,0.03
493.4981,0.97
493.5981,1.63
493.6981,-2.13
493.7981,-9.57
493.8981,-7.31
493.9981,-2.04
494.0981,0.31
494.1981,0.88
494.2981,-0.82
494.3981,-6.84
494.4981,-18.51
494.5981,-5.15
494.6981,-1.01
494.7981,-0.44
494.8981,-1.29
494.9981,-3.64
495.0981,-12.2
495.1981,-6.93
495.2981,-0.82
495.3981,1.07
495.4981,1.72
495.5981,-0.53
495.6981,-4.49
495.7981,-10.79
495.8981,-5.05
495.9981,-1.76
496.0981,1.16
496.1981,-1.01
496.2981,-3.64
496.3981,-12.39
496.4981,-11.08
496.5981,-3.08
496.6981,-0.82
496.7981,0.5
496.8981,-1.29
496.9981,-6.37
497.0981,-10.42
497.1981,-2.6
497.2981,-0.35
497.3981,1.25
497.4981,0.31
497.5981,-3.45
497.6981,-10.13
497.7981,-17.0
497.8981,-15.03
497.9981,-13.33
498.0981,-8.53
498.1981,-6.75
498.2981,-8.16
498.3981,-26.13
498.4981,-6.56
498.5981,-1.85
498.6981,0.88
498.7981,0.31
498.8981,-2.98
498.9981,-8.44
499.0981,-8.35
499.1981,-2.7
499.2981,-0.06
499.3981,1.35
499.4981,-0.16
499.5981,-3.73
499.6981,-13.33
499.7981,-9.38
499.8981,-3.92
499.9981,-0.06
500.0981,-0.25
500.1981,-3.26
500.2981,-10.6
500.3981,-13.8
500.4981,-4.11
500.5981,-0.72
500.6981,-0.16
500.7981,-2.51
500.8981,-4.96
500.9981,-11.45
501.0981,-4.68
501.1981,-1.01
501.2981,0.78
501.3981,0.31
501.4981,-2.13
501.5981,-7.31
501.6981,-16.63
501.7981,-4.68
501.8981,-1.66
501.9981,-0.25
502.0981,-1.95
502.1981,-5.99
502.2981,-20.11
502.3981,-6.65
502.4981,-1.57
502.5981,-0.06
502.6981,-0.25
502.7981,-1.19
502.8981,-6.75
502.9981,-9.85
503.0981,-3.73
503.1981,-0.35
503.2981,0.12
503.3981,-1.19
503.4981,-5.99
503.5981,-16.44
503.6981,-15.59
503.7981,-11.17
503.8981,-14.46
503.9981,-13.05
504.0981,-11.45
504.1981,-14.75
504.2981,-13.9
504.3981,-4.02
504.4981,0.41
504.5981,1.44
504.6981,-0.06
504.7981,-3.45
504.8981,-10.89
504.9981,-6.75
505.0981,-1.66
505.1981,0.22
505.2981,0.97
505.3981,-1.57
505.4981,-6.37
505.5981,-25.48
505.6981,-6.46
505.7981,-2.13
505.8981,-1.1
505.9981,-2.04
506.0981,-5.99
506.1981,-18.32
506.2981,-7.03
506.3981,-0.82
506.4981,0.5
506.5981,0.22
506.6981,-1.95
506.7981,-6.37
506.8981,-11.83
506.9981,-5.24
507.0981,-1.48
507.1981,0.22
507.2981,-0.63
507.3981,-3.73
507.4981,-12.96
507.5981,-11.45
507.6981,-2.79
507.7981,-0.35
507.8981,-0.53
507.9981,-3.36
508.0981,-9.85
508.1981,-11.36
508.2981,-2.98
508.3981,-0.06
508.4981,0.69
508.5981,-0.63
508.6981,-2.32
508.7981,-8.44
508.8981,-9.66
508.9981,-2.7
509.0981,-0.82
509.1981,-0.25
509.2981,-2.23
509.3981,-8.44
509.4981,-23.97
509.5981,-9.0
509.6981,-7.31
509.7981,-10.32
509.8981,-14.84
509.9981,-15.03
510.0981,-17.76
510.1981,-10.13
510.2981,-3.36
510.3981,-0.25
510.4981,0.88
510.5981,-1.01
510.6981,-4.39
510.7981,-14.75
510.8981,-7.59
510.9981,-1.85
511.0981,-0.82
511.1981,-0.91
511.2981,-4.68
511.3981,-15.5
511.4981,-10.42
511.5981,-3.45
511.6981,-0.53
511.7981,-0.63
511.8981,-1.48
511.9981,-7.12
512.0981,-10.32
512.1981,-4.3
512.2981,0.69
512.3981,1.82
512.4981,0.69
512.5981,-1.1
512.6981,-8.63
512.7981,-14.65
512.8981,-4.49
512.9981,-1.38
513.0981,-0.35
513.1981,-2.51
513.2981,-8.16
513.3981,-17.57
513.4981,-4.39
513.5981,0.97
513.6981,1.35
513.7981,1.35
513.8981,-2.6
513.9981,-8.06
514.0981,-9.0
514.1981,-2.79
514.2981,-0.44
514.3981,0.97
514.4981,-0.63
514.5981,-4.2
514.6981,-14.37
514.7981,-8.53
514.8981,-1.95
514.9981,-0.63
515.0981,-1.66
515.1981,-5.15
515.2981,-14.75
515.3981,-9.95
515.4981,-3.92
515.5981,-3.17
515.6981,-5.62
515.7981,-11.08
515.8981,-15.59
515.9981,-18.23
516.0981,-10.98
516.1981,-4.3
516.2981,-0.91
516.3981,1.16
516.4981,-1.38
516.5981,-8.44
516.6981,-14.75
516.7981,-4.58
516.8981,-0.25
516.9981,-0.53
517.0981,-2.04
517.1981,-6.46
517.2981,-15.78
517.3981,-6.75
517.4981,-1.38
517.5981,0.88
517.6981,0.41
517.7981,-1.57
517.8981,-6.28
517.9981,-10.6
518.0981,-4.58
518.1981,-0.72
518.2981,0.31
518.3981,-0.91
518.4981,-4.2
518.5981,-14.65
518.6981,-11.08
518.7981,-3.08
518.8981,-1.19
518.9981,-1.76
519.0981,-2.89
519.1981,-10.79
519.2981,-11.26
519.3981,-2.51
519.4981,0.59
519.5981,1.25
519.6981,0.03
519.7981,-2.79
519.8981,-10.32
519.9981,-7.78
520.0981,-2.32
520.1981,-0.25
520.2981,-0.16
520.3981,-1.85
520.4981,-8.82
520.5981,-18.13
520.6981,-4.96
520.7981,-1.57
520.8981,0.03
520.9981,-1.19
521.0981,-3.55
521.1981,-11.45
521.2981,-5.99
521.3981,-2.89
521.4981,-1.76
521.5981,-4.02
521.6981,-8.82
521.7981,-18.51
521.8981,-27.08
521.9981,-12.96
522.0981,-5.8
522.1981,-3.17
522.2981,-3.83
522.3981,-6.37
522.4981,-18.51
522.5981,-8.53
522.6981,-3.17
522.7981,0.5
522.8981,0.41
522.9981,-2.51
523.0981,-7.12
523.1981,-9.66
523.2981,-2.98
523.3981,0.59
523.4981,2.01
523.5981,1.25
523.6981,-1.85
523.7981,-8.53
523.8981,-11.26
523.9981,-4.39
524.0981,-0.72
524.1981,-0.82
524.2981,-2.98
524.3981,-7.22
524.4981,-17.57
524.5981,-5.62
524.6981,-0.82
524.7981,-0.16
524.8981,0.41
524.9981,-2.13
525.0981,-8.63
525.1981,-6.56
525.2981,-1.57
525.3981,1.25
525.4981,0.78
525.5981,-0.16
525.6981,-3.83
525.7981,-13.43
525.8981,-7.5
525.9981,-1.95
526.0981,-0.53
526.1981,-1.38
526.2981,-4.11
526.3981,-11.92
526.4981,-8.35
526.5981,-1.76
526.6981,0.22
526.7981,0.59
526.8981,-1.1
526.9981,-4.49
527.0981,-10.23
527.1981,-5.15
527.2981,-0.06
527.3981,-0.35
527.4981,-2.98
527.5981,-8.06
527.6981,-18.79
527.7981,-28.77
527.8981,-15.97
527.9981,-7.78
528.0981,-4.2
528.1981,-4.11
528.2981,-8.16
528.3981,-14.09
528.4981,-5.33
528.5981,-1.01
528.6981,0.31
528.7981,-0.35
528.8981,-1.66
528.9981,-7.4
529.0981,-8.72
529.1981,-1.76
529.2981,-0.82
529.3981,1.16
529.4981,-0.82
529.5981,-4.86
529.6981,-13.05
529.7981,-8.82
529.8981,-3.26
529.9981,-1.76
530.0981,-1.76
530.1981,-3.92
530.2981,-11.36
530.3981,-8.53
530.4981,-2.7
530.5981,0.5
530.6981,0.31
530.7981,-0.25
530.8981,-3.36
530.9981,-8.63
531.0981,-5.9
531.1981,-1.38
531.2981,0.69
531.3981,0.03
531.4981,-1.85
531.5981,-7.4
531.6981,-16.63
531.7981,-5.15
531.8981,-1.48
531.9981,-0.06
532.0981,-1.1
532.1981,-4.86
532.2981,-10.89
532.3981,-5.05
532.4981,-0.44
532.5981,0.69
532.6981,0.12
532.7981,0.31
532.8981,-3.73
532.9981,-10.51
533.0981,-5.24
533.1981,-0.63
533.2981,-1.38
533.3981,-2.98
533.4981,-8.06
533.5981,-21.8
533.6981,-22.56
533.7981,-17.66
533.8981,-10.51
533.9981,-5.99
534.0981,-5.99
534.1981,-8.53
534.2981,-11.73
534.3981,-3.92
534.4981,-1.1
534.5981,0.78
534.6981,0.88
534.7981,-2.6
534.8981,-8.16
534.9981,-12.2
535.0981,-4.11
535.1981,-1.48
535.2981,-1.1
535.3981,-3.55
535.4981,-9.95
535.5981,-18.13
535.6981,-5.99
535.7981,-1.66
535.8981,-1.01
535.9981,-0.06
536.0981,-3.73
536.1981,-10.13
536.2981,-7.78
536.3981,-2.51
536.4981,0.22
536.5981,1.07
536.6981,0.03
536.7981,-4.11
536.8981,-12.02
536.9981,-8.16
537.0981,-4.2
537.1981,-1.76
537.2981,-2.79
537.3981,-5.33
537.4981,-18.13
537.5981,-9.57
537.6981,-2.42
537.7981,1.16
537.8981,-0.06
537.9981,-1.76
538.0981,-5.71
538.1981,-9.95
538.2981,-5.43
538.3981,-1.76
538.4981,0.31
538.5981,0.5
538.6981,-2.51
538.7981,-7.78
538.8981,-15.78
538.9981,-6.09
539.0981,-2.51
539.1981,-1.66
539.2981,-4.58
539.3981,-11.64
539.4981,-23.69
539.5981,-14.93
539.6981,-15.12
539.7981,-12.77
539.8981,-8.25
539.9981,-6.65
540.0981,-9.57
540.1981,-11.83
540.2981,-5.15
540.3981,-1.76
540.4981,-0.35
540.5981,-1.48
540.6981,-5.52
540.7981,-17.48
540.8981,-9.29
540.9981,-3.45
541.0981,-1.48
541.1981,-1.95
541.2981,-5.24
541.3981,-13.52
541.4981,-11.26
541.5981,-2.23
541.6981,-0.44
541.7981,-0.91
541.8981,-0.44
541.9981,-4.3
542.0981,-10.51
542.1981,-7.12
542.2981,-2.6
542.3981,-1.01
542.4981,-1.1
542.5981,-2.79
542.6981,-10.7
542.7981,-15.88
542.8981,-5.15
542.9981,-1.76
543.0981,-0.63
543.1981,-2.42
543.2981,-7.69
543.3981,-15.97
543.4981,-6.65
543.5981,-1.76
543.6981,-0.44
543.7981,0.78
543.8981,-2.32
543.9981,-7.12
544.0981,-11.83
544.1981,-5.43
544.2981,-2.79
544.3981,-0.72
544.4981,-2.51
544.5981,-5.52
544.6981,-19.83
544.7981,-10.6
544.8981,-3.73
544.9981,-1.48
545.0981,-1.76
545.1981,-5.15
545.2981,-11.73
545.3981,-12.96
545.4981,-8.53
545.5981,-10.23
545.6981,-13.9
545.7981,-12.02
545.8981,-10.51
545.9981,-14.93
546.0981,-11.17
546.1981,-4.02
546.2981,-1.38
546.3981,-2.04
546.4981,-4.3
546.5981,-10.42
546.6981,-19.55
546.7981,-6.18
546.8981,-2.42
546.9981,-1.66
547.0981,-2.32
547.1981,-5.9
547.2981,-12.3
547.3981,-5.9
547.4981,-2.23
547.5981,0.78
547.6981,0.78
547.7981,-2.13
547.8981,-6.46
547.9981,-14.93
548.0981,-7.03
548.1981,-3.17
548.2981,-1.19
548.3981,-1.76
548.4981,-6.28
548.5981,-19.64
548.6981,-9.66
548.7981,-4.3
548.8981,-1.1
548.9981,-1.1
549.0981,-3.64
549.1981,-8.16
549.2981,-10.51
549.3981,-3.08
549.4981,-0.53
549.5981,-0.16
549.6981,-0.16
549.7981,-4.2
549.8981,-10.23
549.9981,-13.99
550.0981,-5.62
550.1981,-2.42
550.2981,-2.79
550.3981,-5.05
550.4981,-11.17
550.5981,-19.26
550.6981,-6.18
550.7981,-2.32
550.8981,-1.29
550.9981,-2.51
551.0981,-5.62
551.1981,-12.3
551.2981,-9.66
551.3981,-6.18
551.4981,-7.03
551.5981,-11.92
551.6981,-18.6
551.7981,-24.16
551.8981,-35.92
551.9981,-29.43
552.0981,-24.91
552.1981,-23.78
552.2981,-25.0
552.3981,-28.86
552.4981,-39.5
552.5981,-32.63
552.6981,-26.7
552.7981,-24.82
552.8981,-24.72
552.9981,-26.98
553.0981,-31.12
553.1981,-36.2
553.2981,-30.84
553.3981,-26.98
553.4981,-25.57
553.5981,-26.32
553.6981,-28.68
553.7981,-35.73
553.8981,-43.17
553.9981,-31.59
554.0981,-28.39
554.1981,-28.02
554.2981,-30.46
554.3981,-36.58
554.4981,-39.5
554.5981,-30.46
554.6981,-28.11
554.7981,-25.76
554.8981,-26.7
554.9981,-28.96
555.0981,-33.76
555.1981,-37.24
555.2981,-30.93
555.3981,-27.45
555.4981,-26.7
555.5981,-28.2
555.6981,-32.44
555.7981,-48.25
555.8981,-35.08
555.9981,-29.33
556.0981,-27.45
556.1981,-28.02
556.2981,-31.12
556.3981,-39.03
556.4981,-34.51
556.5981,-27.73
556.6981,-24.91
556.7981,-24.25
556.8981,-25.0
556.9981,-28.49
557.0981,-35.73
557.1981,-31.78
557.2981,-25.57
557.3981,-23.22
557.4981,-22.18
557.5981,-23.12
557.6981,-27.45
557.7981,-23.03
557.8981,-11.26
557.9981,-5.99
558.0981,-3.45
558.1981,-4.86
558.2981,-8.53
558.3981,-13.05
558.4981,-6.56
558.5981,-1.48
558.6981,0.5
558.7981,0.12
558.8981,-2.79
558.9981,-7.03
559.0981,-15.22
559.1981,-7.5
559.2981,-2.89
559.3981,-3.08
559.4981,-4.49
559.5981,-8.53
559.6981,-26.32
559.7981,-8.91
559.8981,-3.64
559.9981,-2.6
560.0981,-3.08
560.1981,-5.8
560.2981,-12.49
560.3981,-9.66
560.4981,-3.36
560.5981,-1.57
560.6981,0.31
560.7981,-1.95
560.8981,-4.68
560.9981,-12.58
561.0981,-10.6
561.1981,-5.43
561.2981,-2.32
561.3981,-2.13
561.4981,-4.96
561.5981,-14.37
561.6981,-13.24
561.7981,-4.3
561.8981,-1.57
561.9981,-1.19
562.0981,-2.79
562.1981,-5.62
562.2981,-12.49
562.3981,-7.69
562.4981,-2.79
562.5981,-0.72
562.6981,-0.53
562.7981,-2.23
562.8981,-7.5
562.9981,-21.9
563.0981,-9.48
563.1981,-5.52
563.2981,-6.65
563.3981,-9.57
563.4981,-18.42
563.5981,-55.31
563.6981,-19.36
563.7981,-10.13
563.8981,-4.86
563.9981,-2.98
564.0981,-4.02
564.1981,-7.69
564.2981,-11.73
564.3981,-5.52
564.4981,-3.08
564.5981,-1.38
564.6981,-2.23
564.7981,-5.71
564.8981,-15.69
564.9981,-14.09
565.0981,-5.52
565.1981,-3.73
565.2981,-3.64
565.3981,-6.18
565.4981,-13.52
565.5981,-14.18
565.6981,-5.33
565.7981,-2.13
565.8981,-1.29
565.9981,-1.85
566.0981,-3.73
566.1981,-9.57
566.2981,-9.38
566.3981,-3.73
566.4981,-1.76
566.5981,-1.48
566.6981,-2.7
566.7981,-7.78
566.8981,-26.79
566.9981,-9.57
567.0981,-3.83
567.1981,-4.11
567.2981,-4.68
567.3981,-8.44
567.4981,-20.49
567.5981,-8.44
567.6981,-3.36
567.7981,-1.29
567.8981,-1.48
567.9981,-3.26
568.0981,-7.59
568.1981,-14.93
568.2981,-8.44
568.3981,-4.58
568.4981,-2.51
568.5981,-3.73
568.6981,-5.71
568.7981,-13.15
568.8981,-15.69
568.9981,-6.18
569.0981,-4.58
569.1981,-5.24
569.2981,-8.44
569.3981,-17.19
569.4981,-27.36
569.5981,-19.92
569.6981,-11.45
569.7981,-7.12
569.8981,-4.49
569.9981,-5.43
570.0981,-10.6
570.1981,-16.53
570.2981,-8.16
570.3981,-3.55
570.4981,-3.45
570.5981,-4.68
570.6981,-9.76
570.7981,-19.17
570.8981,-8.53
570.9981,-5.15
571.0981,-2.98
571.1981,-4.68
571.2981,-8.06
571.3981,-17.76
571.4981,-9.1
571.5981,-4.3
571.6981,-1.57
571.7981,-0.63
571.8981,-2.98
571.9981,-6.56
572.0981,-17.29
572.1981,-12.96
572.2981,-5.71
572.3981,-4.39
572.4981,-4.49
572.5981,-7.31
572.6981,-15.69
572.7981,-12.68
572.8981,-6.93
572.9981,-3.55
573.0981,-2.7
573.1981,-4.2
573.2981,-10.98
573.3981,-15.4
573.4981,-6.75
573.5981,-3.08
573.6981,-1.19
573.7981,-1.48
573.8981,-3.64
573.9981,-8.91
574.0981,-40.35
574.1981,-10.79
574.2981,-4.86
574.3981,-5.9
574.4981,-7.69
574.5981,-12.11
574.6981,-16.82
574.7981,-8.25
574.8981,-4.2
574.9981,-3.08
575.0981,-4.58
575.1981,-10.23
575.2981,-19.45
575.3981,-20.49
575.4981,-18.42
575.5981,-16.72
575.6981,-10.98
575.7981,-9.57
575.8981,-9.76
575.9981,-16.25
576.0981,-13.15
576.1981,-6.75
576.2981,-5.9
576.3981,-6.56
576.4981,-11.73
576.5981,-25.48
576.6981,-9.85
576.7981,-4.02
576.8981,-2.7
576.9981,-2.7
577.0981,-4.39
577.1981,-8.72
577.2981,-18.23
577.3981,-8.63
577.4981,-4.3
577.5981,-1.95
577.6981,-2.7
577.7981,-5.33
577.8981,-12.58
577.9981,-16.16
578.0981,-7.5
578.1981,-5.99
578.2981,-5.24
578.3981,-6.65
578.4981,-14.18
578.5981,-15.69
578.6981,-6.28
578.7981,-2.42
578.8981,-1.85
578.9981,-2.32
579.0981,-4.68
579.1981,-11.45
579.2981,-16.06
579.3981,-7.69
579.4981,-4.2
579.5981,-2.79
579.6981,-4.02
579.7981,-9.66
579.8981,-18.89
579.9981,-10.23
580.0981,-5.24
580.1981,-4.11
580.2981,-4.39
580.3981,-10.98
580.4981,-19.45
580.5981,-7.88
580.6981,-2.98
580.7981,-1.48
580.8981,-0.35
580.9981,-2.13
581.0981,-8.16
581.1981,-16.16
581.2981,-14.09
581.3981,-11.83
581.4981,-15.4
581.5981,-13.8
581.6981,-11.83
581.7981,-16.44
581.8981,-20.68
581.9981,-7.59
582.0981,-3.73
582.1981,-3.17
582.2981,-4.39
582.3981,-9.48
582.4981,-16.06
582.5981,-6.09
582.6981,-1.85
582.7981,-0.53
582.8981,0.12
582.9981,-2.32
583.0981,-6.28
583.1981,-15.31
583.2981,-10.23
583.3981,-5.15
583.4981,-3.17
583.5981,-3.36
583.6981,-7.03
583.7981,-15.59
583.8981,-12.39
583.9981,-5.52
584.0981,-3.64
584.1981,-3.73
584.2981,-7.78
584.3981,-18.13
584.4981,-13.15
584.5981,-5.52
584.6981,-2.32
584.7981,-1.95
584.8981,-1.85
584.9981,-5.43
585.0981,-14.09
585.1981,-15.31
585.2981,-6.28
585.3981,-4.68
585.4981,-3.64
585.5981,-7.4
585.6981,-13.33
585.7981,-14.75
585.8981,-6.65
585.9981,-3.92
586.0981,-3.45
586.1981,-3.08
586.2981,-7.78
586.3981,-15.31
586.4981,-8.91
586.5981,-4.49
586.6981,-2.32
586.7981,-1.76
586.8981,-4.49
586.9981,-9.0
587.0981,-21.99
587.1981,-15.78
587.2981,-12.02
587.3981,-14.28
587.4981,-18.23
587.5981,-18.42
587.6981,-22.56
587.7981,-13.9
587.8981,-7.69
587.9981,-4.39
588.0981,-3.36
588.1981,-4.02
588.2981,-9.38
588.3981,-17.85
588.4981,-9.1
588.5981,-3.55
588.6981,-2.13
588.7981,-3.08
588.8981,-5.05
588.9981,-10.98
589.0981,-16.82
589.1981,-10.42
589.2981,-7.12
589.3981,-6.18
589.4981,-10.04
589.5981,-16.53
589.6981,-12.86
589.7981,-6.28
589.8981,-3.45
589.9981,-2.98
590.0981,-3.17
590.1981,-6.46
590.2981,-13.24
590.3981,-13.24
590.4981,-6.75
590.5981,-3.55
590.6981,-2.89
590.7981,-4.2
590.8981,-8.63
590.9981,-14.37
591.0981,-12.3
591.1981,-7.5
591.2981,-6.37
591.3981,-7.4
591.4981,-12.49
591.5981,-20.96
591.6981,-10.23
591.7981,-4.58
591.8981,-2.98
591.9981,-3.26
592.0981,-4.68
592.1981,-8.91
592.2981,-25.95
592.3981,-12.2
592.4981,-6.37
592.5981,-4.77
592.6981,-4.86
592.7981,-7.22
592.8981,-11.55
592.9981,-12.58
593.0981,-10.04
593.1981,-10.42
593.2981,-13.52
593.3981,-21.24
593.4981,-30.84
593.5981,-24.91
593.6981,-11.83
593.7981,-6.46
593.8981,-3.64
593.9981,-3.73
594.0981,-5.99
594.1981,-12.77
594.2981,-23.22
594.3981,-10.13
594.4981,-7.22
594.5981,-5.43
594.6981,-7.69
594.7981,-10.13
594.8981,-11.26
594.9981,-7.97
595.0981,-5.71
595.1981,-5.33
595.2981,-6.37
595.3981,-11.73
595.4981,-27.92
595.5981,-9.57
595.6981,-5.71
595.7981,-2.7
595.8981,-2.79
595.9981,-4.58
596.0981,-8.16
596.1981,-20.49
596.2981,-14.75
596.3981,-8.06
596.4981,-5.99
596.5981,-6.93
596.6981,-8.63
596.7981,-12.77
596.8981,-11.26
596.9981,-7.03
597.0981,-5.71
597.1981,-5.62
597.2981,-8.25
597.3981,-16.35
597.4981,-17.76
597.5981,-7.97
597.6981,-4.96
597.7981,-3.17
597.8981,-4.39
597.9981,-6.75
598.0981,-11.92
598.1981,-15.4
598.2981,-10.23
598.3981,-7.69
598.4981,-7.4
598.5981,-10.23
598.6981,-15.31
598.7981,-11.45
598.8981,-6.65
598.9981,-5.52
599.0981,-6.84
599.1981,-9.57
599.2981,-18.04
599.3981,-33.85
599.4981,-22.84
599.5981,-13.71
599.6981,-7.59
599.7981,-5.33
599.8981,-5.43
599.9981,-7.69
600.0981,-13.33
600.1981,-12.96
600.2981,-8.72
600.3981,-7.31
600.4981,-9.19
600.5981,-13.8
600.6981,-15.12
600.7981,-8.35
600.8981,-5.52
600.9981,-3.64
601.0981,-2.89
601.1981,-6.09
601.2981,-12.2
601.3981,-29.33
601.4981,-10.6
601.5981,-6.28
601.6981,-4.58
601.7981,-4.49
601.8981,-6.46
601.9981,-9.85
602.0981,-12.49
602.1981,-9.76
602.2981,-9.19
602.3981,-9.66
602.4981,-12.58
602.5981,-17.57
602.6981,-10.04
602.7981,-5.71
602.8981,-3.64
602.9981,-2.79
603.0981,-4.49
603.1981,-7.97
603.2981,-16.63
603.3981,-18.13
603.4981,-8.91
603.5981,-6.65
603.6981,-5.8
603.7981,-7.12
603.8981,-10.6
603.9981,-10.79
604.0981,-8.53
604.1981,-6.56
604.2981,-6.65
604.3981,-9.1
604.4981,-15.78
604.5981,-18.32
604.6981,-9.48
604.7981,-4.68
604.8981,-4.02
604.9981,-6.18
605.0981,-8.91
605.1981,-16.16
605.2981,-31.88
605.3981,-26.6
605.4981,-19.08
605.5981,-13.05
605.6981,-12.68
605.7981,-13.71
605.8981,-12.02
605.9981,-8.16
606.0981,-5.05
606.1981,-5.05
606.2981,-6.18
606.3981,-9.1
606.4981,-22.46
606.5981,-12.86
606.6981,-6.46
606.7981,-3.73
606.8981,-3.17
606.9981,-3.26
607.0981,-7.88
607.1981,-14.28
607.2981,-18.23
607.3981,-9.95
607.4981,-7.12
607.5981,-7.4
607.6981,-9.57
607.7981,-12.3
607.8981,-10.7
607.9981,-7.78
608.0981,-5.52
608.1981,-5.62
608.2981,-6.65
608.3981,-13.99
608.4981,-23.31
608.5981,-9.1
608.6981,-5.62
608.7981,-3.83
608.8981,-4.49
608.9981,-6.37
609.0981,-11.64
609.1981,-17.29
609.2981,-11.36
609.3981,-8.16
609.4981,-7.59
609.5981,-10.23
609.6981,-16.16
609.7981,-12.39
609.8981,-6.18
609.9981,-3.17
610.0981,-2.98
610.1981,-3.92
610.2981,-6.56
610.3981,-14.46
610.4981,-17.0
610.5981,-8.82
610.6981,-4.77
610.7981,-3.26
610.8981,-5.8
610.9981,-10.51
611.0981,-18.6
611.1981,-20.11
611.2981,-20.39
611.3981,-16.25
611.4981,-15.69
611.5981,-15.97
611.6981,-21.33
611.7981,-11.64
611.8981,-5.62
611.9981,-3.73
612.0981,-4.2
612.1981,-4.77
612.2981,-9.29
612.3981,-25.48
612.4981,-12.49
612.5981,-6.93
612.6981,-5.05
612.7981,-5.24
612.8981,-6.93
612.9981,-11.64
613.0981,-12.68
613.1981,-7.69
613.2981,-5.9
613.3981,-6.28
613.4981,-7.88
613.5981,-15.22
613.6981,-17.76
613.7981,-7.88
613.8981,-4.96
613.9981,-3.36
614.0981,-3.73
614.1981,-6.46
614.2981,-12.68
614.3981,-20.39
614.4981,-9.1
614.5981,-5.8
614.6981,-3.83
614.7981,-5.8
614.8981,-9.76
614.9981,-12.96
615.0981,-9.48
615.1981,-5.24
615.2981,-4.77
615.3981,-6.56
615.4981,-9.95
615.5981,-22.37
615.6981,-11.45
615.7981,-4.77
615.8981,-3.36
615.9981,-2.6
616.0981,-3.08
616.1981,-7.22
616.2981,-17.0
616.3981,-15.5
616.4981,-7.31
616.5981,-5.15
616.6981,-5.8
616.7981,-8.35
616.8981,-14.93
616.9981,-13.15
617.0981,-11.55
617.1981,-11.92
617.2981,-16.44
617.3981,-17.38
617.4981,-18.51
617.5981,-21.52
617.6981,-10.13
617.7981,-4.58
617.8981,-3.08
617.9981,-2.13
618.0981,-5.33
618.1981,-9.57
618.2981,-36.2
618.3981,-11.45
618.4981,-6.09
618.5981,-5.43
618.6981,-7.88
618.7981,-12.58
618.8981,-17.0
618.9981,-8.16
619.0981,-4.3
619.1981,-3.83
619.2981,-3.92
619.3981,-6.37
619.4981,-13.33
619.5981,-13.24
619.6981,-6.28
619.7981,-3.73
619.8981,-2.98
619.9981,-3.73
620.0980999999999,-7.12
620.1981000000001,-17.19
620.2981,-16.16
620.3981,-8.44
620.4981,-6.09
620.5980999999999,-5.71
620.6981000000001,-8.35
620.7981,-16.25
620.8981,-14.93
620.9981,-7.4
621.0980999999999,-4.58
621.1981000000001,-4.49
621.2981,-5.62
621.3981,-10.04
621.4981,-20.02
621.5980999999999,-10.79
621.6981000000001,-5.52
621.7981,-4.02
621.8981,-3.36
621.9981,-5.33
622.0980999999999,-11.08
622.1981000000001,-17.0
622.2981,-9.95
622.3981,-6.46
622.4981,-5.52
622.5980999999999,-7.31
622.6981000000001,-14.84
622.7981,-20.11
622.8981,-9.95
622.9981,-7.59
623.0980999999999,-8.91
623.1981000000001,-13.33
623.2981,-19.64
623.3981,-23.12
623.4981,-21.99
623.5980999999999,-11.26
623.6981000000001,-6.28
623.7981,-4.49
623.8981,-5.62
623.9981,-7.97
624.0980999999999,-15.97
624.1981000000001,-11.73
624.2981,-6.09
624.3981,-4.96
624.4981,-5.8
624.5980999999999,-9.29
624.6981000000001,-20.11
624.7981,-11.08
624.8981,-5.43
624.9981,-2.89
625.0980999999999,-2.32
625.1981000000001,-3.92
625.2981,-8.06
625.3981,-17.0
625.4981,-12.3
625.5980999999999,-6.84
625.6981000000001,-4.2
625.7981,-5.52
625.8981,-7.5
625.9981,-13.24
626.0980999999999,-15.97
626.1981000000001,-7.88
626.2981,-4.96
626.3981,-4.39
626.4981,-6.18
626.5980999999999,-12.11
626.6981000000001,-13.8
626.7981,-6.28
626.8981,-3.36
626.9981,-1.29
627.0980999999999,-2.04
627.1981000000001,-3.83
627.2981,-9.0
627.3981,-22.28
627.4981,-10.23
627.5980999999999,-5.33
627.6981000000001,-4.39
627.7981,-5.99
627.8981,-9.66
627.9981,-19.55
628.0980999999999,-10.98
628.1981000000001,-5.62
628.2981,-3.83
628.3981,-4.86
628.4981,-6.84
628.5980999999999,-13.62
628.6981000000001,-10.7
628.7981,-5.62
628.8981,-3.55
628.9981,-5.05
629.0980999999999,-9.57
629.1981000000001,-17.76
629.2981,-27.36
629.3981,-31.03
629.4981,-14.46
629.5980999999999,-9.38
629.6981000000001,-7.69
629.7981,-10.42
629.8981,-23.03
629.9981,-12.11
630.0980999999999,-5.8
630.1981000000001,-2.42
630.2981,-1.57
630.3981,-3.92
630.4981,-8.16
630.5980999999999,-14.75
630.6981000000001,-9.48
630.7981,-3.55
630.8981,-2.13
630.9981,-2.42
631.0980999999999,-4.11
631.1981000000001,-8.06
631.2981,-35.36
631.3981,-10.98
631.4981,-6.46
631.5980999999999,-5.05
631.6981000000001,-7.03
631.7981,-13.8
631.8981,-17.85
631.9981,-6.75
632.0980999999999,-2.79
632.1981000000001,-2.13
632.2981,-2.13
632.3981,-4.96
632.4981,-10.04
632.5980999999999,-12.02
632.6981000000001,-6.28
632.7981,-3.83
632.8981,-2.6
632.9981,-2.7
633.0980999999999,-6.84
633.1981000000001,-18.6
633.2981,-13.8
633.3981,-6.28
633.4981,-3.73
633.5980999999999,-4.49
633.6981000000001,-8.72
633.7981,-17.66
633.8981,-9.48
633.9981,-3.45
634.0980999999999,-1.48
634.1981000000001,-0.53
634.2981,-1.76
634.3981,-5.15
634.4981,-10.98
634.5980999999999,-10.04
634.6981000000001,-6.28
634.7981,-4.68
634.8981,-5.33
634.9981,-9.85
635.0980999999999,-19.55
635.1981000000001,-36.86
635.2981,-20.77
635.3981,-11.83
635.4981,-8.25
635.5980999999999,-8.06
635.6981000000001,-11.83
635.7981,-14.37
635.8981,-5.15
635.9981,-2.23
636.0980999999999,0.12
636.1981000000001,0.12
636.2981,-1.95
636.3981,-6.75
636.4981,-9.66
636.5980999999999,-6.09
636.6981000000001,-2.32
636.7981,-2.79
636.8981,-3.45
636.9981,-7.12
637.0980999999999,-20.96
637.1981000000001,-10.98
637.2981,-4.96
637.3981,-1.85
637.4981,-2.51
637.5980999999999,-5.62
637.6981000000001,-10.79
637.7981,-8.72
637.8981,-2.79
637.9981,-1.19
638.0980999999999,0.22
638.1981000000001,-0.72
638.2981,-3.36
638.3981,-7.78
638.4981,-8.06
638.5980999999999,-4.11
638.6981000000001,-1.76
638.7981,-1.66
638.8981,-4.58
638.9981,-10.7
639.0980999999999,-13.71
639.1981000000001,-5.15
639.2981,-1.95
639.3981,-1.29
639.4981,-1.57
639.5980999999999,-4.96
639.6981000000001,-7.97
639.7981,-5.24
639.8981,-0.91
639.9981,-0.25
640.0980999999999,1.16
640.1981000000001,-0.82
640.2981,-5.15
640.3981,-10.04
640.4981,-5.71
640.5980999999999,-1.66
640.6981000000001,-2.04
640.7981,-2.79
640.8981,-9.19
640.9981,-17.95
641.0980999999999,-16.25
641.1981000000001,-17.29
641.2981,-17.19
641.3981,-17.57
641.4981,-19.17
641.5980999999999,-22.46
641.6981000000001,-23.5
641.7981,-20.02
641.8981,-16.63
641.9981,-13.8
642.0980999999999,-11.36
642.1981000000001,-3.64
642.2981,-6.46
642.3981,-8.82
642.4981,-4.2
642.5980999999999,-1.57
642.6981000000001,-1.48
642.7981,-3.26
642.8981,-7.59
642.9981,-11.45
643.0980999999999,-4.86
643.1981000000001,-1.29
643.2981,0.12
643.3981,0.22
643.4981,-1.76
643.5980999999999,-4.49
643.6981000000001,-4.39
643.7981,-0.16
643.8981,2.67
643.9981,1.07
644.0980999999999,-0.35
644.1981000000001,-3.45
644.2981,-9.85
644.3981,-7.4
644.4981,-2.79
644.5980999999999,-1.1
644.6981000000001,-1.48
644.7981,-3.92
644.8981,-8.82
644.9981,-6.18
645.0980999999999,-1.57
645.1981000000001,1.07
645.2981,1.72
645.3981,0.31
645.4981,-1.19
645.5980999999999,-4.2
645.6981000000001,-2.79
645.7981,-0.25
645.8981,0.59
645.9981,0.31
646.0980999999999,-2.13
646.1981000000001,-6.56
646.2981,-10.6
646.3981,-4.86
646.4981,-1.57
646.5980999999999,-1.1
646.6981000000001,-1.29
646.7981,-4.68
646.8981,-7.88
646.9981,-2.98
647.0980999999999,3.04
647.1981000000001,0.88
647.2981,0.97
647.3981,-0.63
647.4981,-3.73
647.5980999999999,-4.96
647.6981000000001,-2.32
647.7981,-0.25
647.8981,0.78
647.9981,-0.53
648.0980999999999,-3.73
648.1981000000001,-9.38
648.2981,-7.97
648.3981,-3.08
648.4981,-0.35
648.5980999999999,-0.35
648.6981000000001,-2.32
648.7981,-5.62
648.8981,-4.96
648.9981,-1.85
649.0980999999999,0.97
649.1981000000001,1.54
649.2981,0.88
649.3981,-1.19
649.4981,-4.96
649.5980999999999,-5.62
649.6981000000001,-2.23
649.7981,0.03
649.8981,0.41
649.9981,-1.38
650.0980999999999,-5.99
650.1981000000001,-9.66
650.2981,-3.08
650.3981,1.63
650.4981,0.41
650.5980999999999,-0.44
650.6981000000001,-2.89
650.7981,-4.96
650.8981,-2.6
650.9981,0.5
651.0980999999999,2.01
651.1981000000001,2.29
651.2981,0.41
651.3981,-2.13
651.4981,-5.33
651.5980999999999,-2.7
651.6981000000001,-0.25
651.7981,0.88
651.8981,0.78
651.9981,-2.23
652.0980999999999,-6.46
652.1981000000001,-5.62
652.2981,-1.76
652.3981,0.59
652.4981,1.16
652.5980999999999,-0.35
652.6981000000001,-3.17
652.7981,-4.58
652.8981,-1.29
652.9981,1.25
653.0980999999999,2.76
653.1981000000001,1.35
653.2981,-0.16
653.3981,-3.83
653.4981,-5.52
653.5980999999999,0.31
653.6981000000001,0.59
653.7981,0.22
653.8981,-1.1
653.9981,-4.86
654.0980999999999,-7.22
654.1981000000001,-2.98
654.2981,0.31
654.3981,1.25
654.4981,0.97
654.5980999999999,-1.29
654.6981000000001,-3.36
654.7981,-2.42
654.8981,0.41
654.9981,1.72
655.0980999999999,2.48
655.1981000000001,1.63
655.2981,-1.48
655.3981,-4.68
655.4981,-3.36
655.5980999999999,-0.82
655.6981000000001,0.59
655.7981,0.22
655.8981,-1.95
655.9981,-5.52
656.0980999999999,-5.15
656.1981000000001,-0.91
656.2981,1.44
656.3981,1.82
656.4981,0.88
656.5980999999999,-1.29
656.6981000000001,-2.7
656.7981,-0.91
656.8981,3.32
656.9981,1.82
657.0980999999999,1.91
657.1981000000001,-0.53
657.2981,-3.92
657.3981,-6.28
657.4981,-1.85
657.5980999999999,0.22
657.6981000000001,0.88
657.7981,-0.16
657.8981,-3.26
657.9981,-4.68
658.0980999999999,-1.19
658.1981000000001,2.1
658.2981,2.85
658.3981,2.48
658.4981,0.69
658.5980999999999,-1.95
658.6981000000001,-2.13
658.7981,-0.16
658.8981,0.97
658.9981,2.19
659.0980999999999,1.16
659.1981000000001,-1.48
659.2981,-5.52
659.3981,-3.64
659.4981,-0.25
659.5980999999999,1.07
659.6981000000001,0.78
659.7981,-0.72
659.8981,-2.98
659.9981,-2.79
660.0980999999999,1.82
660.1981000000001,5.58
660.2981,3.14
660.3981,2.76
660.4981,0.69
660.5980999999999,-2.04
660.6981000000001,-1.38
660.7981,0.59
660.8981,2.19
660.9981,1.25
661.0980999999999,-0.06
661.1981000000001,-3.55
661.2981,-5.71
661.3981,-2.32
661.4981,0.41
661.5980999999999,1.63
661.6981000000001,0.88
661.7981,-0.63
661.8981,-3.55
661.9981,-0.91
662.0980999999999,0.97
662.1981000000001,2.67
662.2981,2.95
662.3981,1.35
662.4981,-0.44
662.5980999999999,-2.7
662.6981000000001,-1.19
662.7981,1.25
662.8981,2.01
662.9981,1.07
663.0980999999999,-1.95
663.1981000000001,-5.24
663.2981,-3.55
663.3981,1.63
663.4981,4.08
663.5980999999999,2.67
663.6981000000001,1.25
663.7981,-0.91
663.8981,-1.66
663.9981,0.88
664.0980999999999,2.48
664.1981000000001,3.79
664.2981,3.51
664.3981,1.54
664.4981,-1.66
664.5980999999999,-1.29
664.6981000000001,0.59
664.7981,1.91
664.8981,1.72
664.9981,0.41
665.0980999999999,-2.7
665.1981000000001,-5.15
665.2981,-1.57
665.3981,1.91
665.4981,2.57
665.5980999999999,2.38
665.6981000000001,1.25
665.7981,-1.19
665.8981,-0.91
665.9981,1.72
666.0980999999999,2.95
666.1981000000001,3.42
666.2981,1.91
666.3981,-0.53
666.4981,-2.79
666.5980999999999,-0.63
666.6981000000001,4.83
666.7981,1.91
666.8981,1.63
666.9981,-0.63
667.0980999999999,-3.08
667.1981000000001,-2.42
667.2981,1.16
667.3981,3.14
667.4981,3.61
667.5980999999999,2.67
667.6981000000001,1.07
667.7981,-0.35
667.8981,0.59
667.9981,2.48
668.0980999999999,3.42
668.1981000000001,3.04
668.2981,1.07
668.3981,-1.76
668.4981,-3.08
668.5980999999999,0.22
668.6981000000001,1.54
668.7981,2.67
668.8981,1.82
668.9981,-0.44
669.0980999999999,-1.85
669.1981000000001,0.03
669.2981,2.57
669.3981,3.79
669.4981,3.89
669.5980999999999,2.67
669.6981000000001,0.69
669.7981,0.69
669.8981,3.7
669.9981,5.77
670.0980999999999,3.89
670.1981000000001,3.32
670.2981,0.59
670.3981,-1.48
670.4981,-1.48
670.5980999999999,1.25
670.6981000000001,3.14
670.7981,3.23
670.8981,1.82
670.9981,-0.53
671.0980999999999,-0.25
671.1981000000001,1.35
671.2981,3.51
671.3981,3.61
671.4981,3.23
671.5980999999999,1.54
671.6981000000001,0.03
671.7981,0.78
671.8981,2.38
671.9981,4.08
672.0980999999999,3.51
672.1981000000001,2.01
672.2981,-0.91
672.3981,-2.79
672.4981,-0.44
672.5980999999999,2.1
672.6981000000001,2.76
672.7981,2.48
672.8981,0.5
672.9981,-0.16
673.0980999999999,0.88
673.1981000000001,5.3
673.2981,5.96
673.3981,4.45
673.4981,3.23
673.5980999999999,1.35
673.6981000000001,-0.16
673.7981,0.78
673.8981,3.04
673.9981,3.23
674.0980999999999,3.04
674.1981000000001,1.16
674.2981,-1.29
674.3981,-1.66
674.4981,1.07
674.5980999999999,2.57
674.6981000000001,2.95
674.7981,2.19
674.8981,0.78
674.9981,0.12
675.0980999999999,2.19
675.1981000000001,3.89
675.2981,4.45
675.3981,4.55
675.4981,2.57
675.5980999999999,0.41
675.6981000000001,-0.82
675.7981,1.44
675.8981,3.14
675.9981,3.04
676.0980999999999,1.82
676.1981000000001,-0.53
676.2981,-2.32
676.3981,0.78
676.4981,5.3
676.5980999999999,3.89
676.6981000000001,3.7
676.7981,2.48
676.8981,1.25
676.9981,1.35
677.0980999999999,3.23
677.1981000000001,5.3
677.2981,4.92
677.3981,4.64
677.4981,1.91
677.5980999999999,-0.25
677.6981000000001,-0.25
677.7981,1.82
677.8981,2.95
677.9981,2.48
678.0980999999999,1.25
678.1981000000001,-1.19
678.2981,-0.63
678.3981,1.44
678.4981,3.42
678.5980999999999,3.7
678.6981000000001,3.14
678.7981,1.44
678.8981,-0.72
678.9981,1.35
679.0980999999999,2.95
679.1981000000001,4.17
679.2981,3.98
679.3981,2.38
679.4981,-0.06
679.5980999999999,-0.72
679.6981000000001,1.44
679.7981,4.92
679.8981,2.85
679.9981,2.29
680.0980999999999,0.12
680.1981000000001,-1.19
680.2981,0.78
680.3981,3.14
680.4981,3.89
680.5980999999999,4.36
680.6981000000001,3.51
680.7981,0.97
680.8981,0.31
680.9981,2.19
681.0980999999999,4.17
681.1981000000001,4.27
681.2981,3.14
681.3981,1.54
681.4981,-1.01
681.5980999999999,-0.91
681.6981000000001,2.01
681.7981,3.14
681.8981,3.14
681.9981,2.19
682.0980999999999,0.03
682.1981000000001,0.12
682.2981,1.91
682.3981,3.32
682.4981,4.45
682.5980999999999,3.51
682.6981000000001,2.29
682.7981,0.5
682.8981,1.16
682.9981,4.92
