Frequency(MHz),Power(dBmV/100kHz)_20260203_064235
107.8981,-22.45
107.9981,-21.23
108.0981,-14.55
108.1981,-8.62
108.2981,-4.85
108.3981,-2.88
108.4981,-0.71
108.5981,-1.84
108.6981,-4.2
108.7981,-7.58
108.8981,-12.29
108.9981,-9.65
109.0981,-4.57
109.1981,-2.03
109.2981,0.98
109.3981,1.92
109.4981,0.79
109.5981,0.98
109.6981,-0.24
109.7981,-0.81
109.8981,-1.56
109.9981,-2.41
110.0981,-3.91
110.1981,-4.38
110.2981,-5.98
110.3981,-6.83
110.4981,-7.68
110.5981,-8.24
110.6981,-6.55
110.7981,-2.78
110.8981,-0.62
110.9981,1.17
111.0981,2.11
111.1981,1.54
111.2981,1.83
111.3981,0.6
111.4981,-1.84
111.5981,-4.85
111.6981,-7.3
111.7981,-6.55
111.8981,-4.38
111.9981,-2.78
112.0981,-2.03
112.1981,-2.22
112.2981,-2.88
112.3981,-2.6
112.4981,-4.38
112.5981,-4.29
112.6981,-3.73
112.7981,-3.73
112.8981,-2.97
112.9981,-3.07
113.0981,-2.78
113.1981,-3.82
113.2981,-3.35
113.3981,-2.88
113.4981,-2.22
113.5981,-2.31
113.6981,-3.63
113.7981,-5.7
113.8981,-11.44
113.9981,-17.37
114.0981,-20.67
114.1981,-24.71
114.2981,-29.61
114.3981,-32.24
114.4981,-28.76
114.5981,-28.29
114.6981,-26.22
114.7981,-25.47
114.8981,-25.0
114.9981,-25.09
115.0981,-25.56
115.1981,-26.03
115.2981,-26.5
115.3981,-26.5
115.4981,-26.6
115.5981,-26.78
115.6981,-27.63
115.7981,-29.14
115.8981,-31.58
115.9981,-34.41
116.0981,-33.18
116.1981,-29.8
116.2981,-27.25
116.3981,-25.84
116.4981,-25.09
116.5981,-25.18
116.6981,-25.84
116.7981,-27.44
116.8981,-29.51
116.9981,-31.58
117.0981,-30.83
117.1981,-28.85
117.2981,-26.88
117.3981,-25.47
117.4981,-24.9
117.5981,-24.9
117.6981,-25.56
117.7981,-26.69
117.8981,-27.82
117.9981,-28.76
118.0981,-29.14
118.1981,-29.04
118.2981,-28.76
118.3981,-29.33
118.4981,-30.45
118.5981,-31.49
118.6981,-31.02
118.7981,-28.85
118.8981,-26.41
118.9981,-24.34
119.0981,-23.11
119.1981,-22.64
119.2981,-21.7
119.3981,-18.97
119.4981,-20.38
119.5981,-22.93
119.6981,-26.41
119.7981,-27.25
119.8981,-25.09
119.9981,-17.28
120.0981,-9.47
120.1981,-4.76
120.2981,-3.35
120.3981,-1.47
120.4981,-0.53
120.5981,-1.28
120.6981,-0.81
120.7981,-0.71
120.8981,-0.9
120.9981,-0.81
121.0981,-0.34
121.1981,-2.03
121.2981,-3.73
121.3981,-4.76
121.4981,-5.61
121.5981,-3.16
121.6981,-2.03
121.7981,0.32
121.8981,0.7
121.9981,0.79
122.0981,0.23
122.1981,-1.94
122.2981,-6.45
122.3981,-9.84
122.4981,-8.05
122.5981,-4.57
122.6981,-0.53
122.7981,-0.34
122.8981,0.98
122.9981,0.7
123.0981,0.7
123.1981,0.04
123.2981,-0.71
123.3981,-1.47
123.4981,-2.31
123.5981,-2.41
123.6981,-2.88
123.7981,-2.88
123.8981,-5.23
123.9981,-7.58
124.0981,-9.18
124.1981,-6.74
124.2981,-2.88
124.3981,0.13
124.4981,2.02
124.5981,2.58
124.6981,2.02
124.7981,0.89
124.8981,-0.06
124.9981,-1.84
125.0981,-4.95
125.1981,-6.36
125.2981,-5.98
125.3981,-4.1
125.4981,-3.54
125.5981,-5.04
125.6981,-7.4
125.7981,-10.97
125.8981,-16.53
125.9981,-14.36
126.0981,-8.71
126.1981,-6.08
126.2981,-4.38
126.3981,-2.5
126.4981,-2.97
126.5981,-3.35
126.6981,-3.44
126.7981,-3.35
126.8981,-2.5
126.9981,-0.53
127.0981,-0.24
127.1981,1.45
127.2981,1.17
127.3981,0.98
127.4981,0.13
127.5981,-1.84
127.6981,-4.67
127.7981,-9.09
127.8981,-12.85
127.9981,-9.28
128.0981,-4.95
128.1981,-2.22
128.2981,-1.47
128.3981,-1.28
128.4981,-0.81
128.5981,-0.34
128.6981,-0.24
128.7981,0.32
128.8981,-0.15
128.9981,-0.53
129.0981,-0.9
129.1981,-2.13
129.2981,-2.78
129.3981,-6.74
129.4981,-8.81
129.5981,-6.17
129.6981,-3.82
129.7981,-1.66
129.8981,0.23
129.9981,0.6
130.0981,0.04
130.1981,-0.71
130.2981,-1.47
130.3981,-3.63
130.4981,-5.42
130.5981,-5.33
130.6981,-4.38
130.7981,-0.81
130.8981,-1.66
130.9981,-1.18
131.0981,-1.94
131.1981,-1.37
131.2981,-2.03
131.3981,-2.5
131.4981,-3.73
131.5981,-6.64
131.6981,-9.0
131.7981,-12.29
131.8981,-14.55
131.9981,-15.68
132.0981,-16.62
132.1981,-15.02
132.2981,-11.54
132.3981,-8.15
132.4981,-5.23
132.5981,-2.69
132.6981,-0.43
132.7981,1.83
132.8981,4.18
132.9981,7.85
133.0981,19.05
133.1981,8.7
133.2981,-2.22
133.3981,-5.8
133.4981,-6.83
133.5981,-7.21
133.6981,-7.96
133.7981,-8.81
133.8981,-9.94
133.9981,-10.78
134.0981,-11.25
134.1981,-11.44
134.2981,-11.73
134.3981,-12.01
134.4981,-12.85
134.5981,-14.45
134.6981,-16.34
134.7981,-18.69
134.8981,-20.67
134.9981,-20.48
135.0981,-18.97
135.1981,-17.18
135.2981,-17.0
135.3981,-16.53
135.4981,-17.0
135.5981,-17.94
135.6981,-20.85
135.7981,-23.68
135.8981,-25.75
135.9981,-24.81
136.0981,-22.17
136.1981,-20.29
136.2981,-19.44
136.3981,-18.88
136.4981,-19.44
136.5981,-20.01
136.6981,-20.1
136.7981,-20.2
136.8981,-20.2
136.9981,-20.01
137.0981,-20.29
137.1981,-21.14
137.2981,-22.55
137.3981,-25.0
137.4981,-28.29
137.5981,-27.54
137.6981,-22.55
137.7981,-14.45
137.8981,-12.57
137.9981,-8.05
138.0981,-2.97
138.1981,-1.0
138.2981,-1.0
138.3981,-1.18
138.4981,-2.78
138.5981,-4.38
138.6981,-5.7
138.7981,-5.04
138.8981,-4.1
138.9981,-3.44
139.0981,-2.88
139.1981,-2.78
139.2981,-3.35
139.3981,-3.54
139.4981,-3.35
139.5981,-2.22
139.6981,-1.84
139.7981,-1.94
139.8981,-1.28
139.9981,-2.13
140.0981,-4.1
140.1981,-4.85
140.2981,-5.7
140.3981,-4.95
140.4981,-1.18
140.5981,0.51
140.6981,1.17
140.7981,1.17
140.8981,0.23
140.9981,-0.34
141.0981,-1.84
141.1981,-4.57
141.2981,-7.58
141.3981,-10.6
141.4981,-8.34
141.5981,-5.04
141.6981,-3.73
141.7981,-2.03
141.8981,-1.0
141.9981,-1.09
142.0981,-1.09
142.1981,-0.06
142.2981,1.17
142.3981,1.07
142.4981,0.98
142.5981,0.51
142.6981,-1.0
142.7981,-2.5
142.8981,-6.55
142.9981,-8.62
143.0981,-7.4
143.1981,-4.67
143.2981,-3.07
143.3981,-2.13
143.4981,-2.5
143.5981,-5.14
143.6981,-9.18
143.7981,-14.08
143.8981,-13.7
143.9981,-10.41
144.0981,-8.71
144.1981,-4.95
144.2981,-2.78
144.3981,-1.84
144.4981,-1.47
144.5981,-1.84
144.6981,-1.37
144.7981,-0.9
144.8981,-1.56
144.9981,-1.37
145.0981,-1.18
145.1981,-1.28
145.2981,-2.13
145.3981,-4.2
145.4981,-6.17
145.5981,-8.43
145.6981,-5.89
145.7981,-2.41
145.8981,-1.09
145.9981,1.07
146.0981,1.54
146.1981,2.11
146.2981,3.33
146.3981,2.2
146.4981,0.42
146.5981,-0.62
146.6981,-3.63
146.7981,-4.57
146.8981,-6.08
146.9981,-6.36
147.0981,-6.08
147.1981,-4.67
147.2981,-5.14
147.3981,-2.78
147.4981,-2.6
147.5981,-2.13
147.6981,-0.81
147.7981,0.89
147.8981,-0.24
147.9981,-0.9
148.0981,-0.43
148.1981,-2.97
148.2981,-5.61
148.3981,-5.42
148.4981,-5.42
148.5981,-2.97
148.6981,-1.37
148.7981,-0.71
148.8981,0.04
148.9981,-0.43
149.0981,-1.18
149.1981,-2.97
149.2981,-5.23
149.3981,-8.34
149.4981,-9.84
149.5981,-10.69
149.6981,-13.61
149.7981,-14.93
149.8981,-11.35
149.9981,-5.98
150.0981,-4.57
150.1981,-1.84
150.2981,-0.43
150.3981,-0.06
150.4981,0.79
150.5981,-0.43
150.6981,-1.18
150.7981,-2.41
150.8981,-5.61
150.9981,-10.78
151.0981,-12.76
151.1981,-6.27
151.2981,-3.26
151.3981,-0.06
151.4981,1.17
151.5981,1.54
151.6981,1.36
151.7981,0.7
151.8981,0.51
151.9981,-1.56
152.0981,-2.78
152.1981,-3.26
152.2981,-3.07
152.3981,-2.69
152.4981,-2.6
152.5981,-3.26
152.6981,-3.44
152.7981,-4.57
152.8981,-4.1
152.9981,-2.31
153.0981,-1.18
153.1981,-1.18
153.2981,-1.56
153.3981,-2.03
153.4981,-2.03
153.5981,-4.01
153.6981,-5.04
153.7981,-5.8
153.8981,-3.82
153.9981,-0.9
154.0981,0.51
154.1981,0.79
154.2981,0.98
154.3981,0.51
154.4981,0.7
154.5981,-1.18
154.6981,-2.78
154.7981,-5.8
154.8981,-7.58
154.9981,-6.74
155.0981,-4.95
155.1981,-4.1
155.2981,-4.67
155.3981,-3.91
155.4981,-5.7
155.5981,-7.87
155.6981,-12.29
155.7981,-11.73
155.8981,-6.08
155.9981,-3.63
156.0981,-1.66
156.1981,-1.56
156.2981,-3.82
156.3981,-5.8
156.4981,-7.3
156.5981,-7.58
156.6981,-3.54
156.7981,-2.03
156.8981,-0.43
156.9981,0.04
157.0981,0.04
157.1981,-1.18
157.2981,-1.56
157.3981,-2.97
157.4981,-2.78
157.5981,-3.54
157.6981,-3.35
157.7981,-2.69
157.8981,-2.41
157.9981,-2.31
158.0981,-1.56
158.1981,-1.94
158.2981,-1.09
158.3981,-0.43
158.4981,-0.81
158.5981,-0.34
158.6981,0.89
158.7981,-0.81
158.8981,-1.66
158.9981,-6.55
159.0981,-9.65
159.1981,-7.02
159.2981,-3.07
159.3981,-0.62
159.4981,-0.06
159.5981,0.7
159.6981,1.45
159.7981,1.64
159.8981,1.17
159.9981,0.89
160.0981,-0.53
160.1981,-1.37
160.2981,-2.78
160.3981,-4.1
160.4981,-5.98
160.5981,-6.27
160.6981,-6.45
160.7981,-5.23
160.8981,-3.82
160.9981,-1.75
161.0981,0.04
161.1981,0.42
161.2981,-0.9
161.3981,-1.94
161.4981,-5.33
161.5981,-9.47
161.6981,-15.58
161.7981,-15.77
161.8981,-10.97
161.9981,-6.55
162.0981,-3.44
162.1981,-0.9
162.2981,0.23
162.3981,-0.62
162.4981,-0.43
162.5981,-1.37
162.6981,-1.84
162.7981,-3.44
162.8981,-4.2
162.9981,-4.48
163.0981,-3.73
163.1981,-3.07
163.2981,-3.35
163.3981,-3.44
163.4981,-1.75
163.5981,-0.43
163.6981,-0.53
163.7981,0.79
163.8981,0.89
163.9981,0.89
164.0981,1.36
164.1981,-0.06
164.2981,-2.13
164.3981,-5.33
164.4981,-8.81
164.5981,-10.41
164.6981,-6.36
164.7981,-2.41
164.8981,-1.09
164.9981,0.51
165.0981,1.36
165.1981,1.36
165.2981,0.7
165.3981,0.04
165.4981,-0.53
165.5981,-1.18
165.6981,-1.28
165.7981,-2.13
165.8981,-1.84
165.9981,-2.78
166.0981,-3.91
166.1981,-4.01
166.2981,-3.35
166.3981,-2.78
166.4981,-2.03
166.5981,-0.43
166.6981,1.54
166.7981,0.04
166.8981,-0.34
166.9981,-3.07
167.0981,-5.23
167.1981,-5.98
167.2981,-6.36
167.3981,-5.98
167.4981,-5.98
167.5981,-9.65
167.6981,-11.73
167.7981,-7.58
167.8981,-3.35
167.9981,-1.47
168.0981,-2.13
168.1981,-1.94
168.2981,-3.16
168.3981,-4.85
168.4981,-5.14
168.5981,-5.51
168.6981,-5.98
168.7981,-4.95
168.8981,-3.91
168.9981,-1.66
169.0981,0.89
169.1981,2.02
169.2981,2.3
169.3981,2.77
169.4981,2.67
169.5981,1.17
169.6981,0.7
169.7981,-2.13
169.8981,-5.42
169.9981,-8.62
170.0981,-7.11
170.1981,-5.04
170.2981,-2.22
170.3981,-1.18
170.4981,0.98
170.5981,-0.06
170.6981,-0.43
170.7981,-1.66
170.8981,-1.56
170.9981,-1.47
171.0981,-1.0
171.1981,-0.9
171.2981,-1.0
171.3981,-2.6
171.4981,-2.69
171.5981,-1.66
171.6981,-1.37
171.7981,-1.0
171.8981,0.32
171.9981,1.17
172.0981,0.7
172.1981,0.51
172.2981,-0.24
172.3981,-2.03
172.4981,-5.33
172.5981,-9.94
172.6981,-9.65
172.7981,-5.8
172.8981,-2.41
172.9981,0.32
173.0981,0.98
173.1981,0.98
173.2981,-0.15
173.3981,-2.69
173.4981,-6.93
173.5981,-12.57
173.6981,-13.98
173.7981,-9.75
173.8981,-7.3
173.9981,-6.83
174.0981,-6.74
174.1981,-6.36
174.2981,-5.14
174.3981,-3.82
174.4981,-1.09
174.5981,0.23
174.6981,1.73
174.7981,2.39
174.8981,1.73
174.9981,1.64
175.0981,0.23
175.1981,-1.56
175.2981,-3.63
175.3981,-4.95
175.4981,-3.82
175.5981,-1.94
175.6981,-0.71
175.7981,0.04
175.8981,0.6
175.9981,0.32
176.0981,-0.53
176.1981,-2.41
176.2981,-3.44
176.3981,-3.73
176.4981,-4.1
176.5981,-3.73
176.6981,-4.85
176.7981,-4.57
176.8981,-3.16
176.9981,-2.22
177.0981,-0.34
177.1981,0.6
177.2981,1.26
177.3981,1.83
177.4981,3.24
177.5981,2.58
177.6981,0.89
177.7981,-1.18
177.8981,-2.97
177.9981,-6.55
178.0981,-9.28
178.1981,-6.36
178.2981,-4.01
178.3981,-0.71
178.4981,0.51
178.5981,0.98
178.6981,0.7
178.7981,0.79
178.8981,0.6
178.9981,0.7
179.0981,-0.71
179.1981,-1.47
179.2981,-3.82
179.3981,-7.96
179.4981,-12.01
179.5981,-18.03
179.6981,-16.43
179.7981,-11.25
179.8981,-5.98
179.9981,-2.6
180.0981,-1.84
180.1981,0.42
180.2981,1.36
180.3981,0.42
180.4981,-0.9
180.5981,-3.44
180.6981,-5.51
180.7981,-4.85
180.8981,-3.63
180.9981,-1.37
181.0981,-0.15
181.1981,1.07
181.2981,1.54
181.3981,1.36
181.4981,1.45
181.5981,0.32
181.6981,-0.06
181.7981,-1.18
181.8981,-2.03
181.9981,-3.35
182.0981,-4.29
182.1981,-6.74
182.2981,-6.64
182.3981,-5.04
182.4981,-2.88
182.5981,0.32
182.6981,1.73
182.7981,1.83
182.8981,2.67
182.9981,2.39
183.0981,1.64
183.1981,-0.06
183.2981,-1.84
183.3981,-3.91
183.4981,-6.74
183.5981,-5.61
183.6981,-5.8
183.7981,-2.97
183.8981,-0.71
183.9981,0.04
184.0981,-0.34
184.1981,-0.53
184.2981,-0.15
184.3981,0.51
184.4981,-0.43
184.5981,-1.09
184.6981,-1.37
184.7981,-0.34
184.8981,-1.66
184.9981,-3.54
185.0981,-3.16
185.1981,-3.26
185.2981,-4.2
185.3981,-6.36
185.4981,-9.65
185.5981,-11.63
185.6981,-8.53
185.7981,-5.89
185.8981,-4.76
185.9981,-6.74
186.0981,-8.9
186.1981,-8.05
186.2981,-5.7
186.3981,-1.94
186.4981,-0.24
186.5981,0.04
186.6981,1.83
186.7981,2.02
186.8981,1.64
186.9981,1.92
187.0981,1.45
187.1981,0.89
187.2981,-0.34
187.3981,-0.9
187.4981,-3.16
187.5981,-5.33
187.6981,-7.21
187.7981,-6.55
187.8981,-4.1
187.9981,-1.37
188.0981,0.04
188.1981,1.07
188.2981,1.64
188.3981,1.17
188.4981,1.17
188.5981,0.89
188.6981,-1.09
188.7981,-2.88
188.8981,-3.73
188.9981,-3.16
189.0981,-2.31
189.1981,-1.56
189.2981,-0.9
189.3981,-0.9
189.4981,-0.43
189.5981,-1.18
189.6981,-0.53
189.7981,-0.34
189.8981,-1.66
189.9981,-1.28
190.0981,-2.78
190.1981,-3.91
190.2981,-4.38
190.3981,-4.29
190.4981,-2.78
190.5981,-0.24
190.6981,0.23
190.7981,2.39
190.8981,2.77
190.9981,3.05
191.0981,2.11
191.1981,0.42
191.2981,-4.48
191.3981,-9.65
191.4981,-17.65
191.5981,-20.57
191.6981,-15.49
191.7981,-8.62
191.8981,-4.95
191.9981,-3.16
192.0981,-0.43
192.1981,0.13
192.2981,0.13
192.3981,0.79
192.4981,1.45
192.5981,0.7
192.6981,0.79
192.7981,0.23
192.8981,-1.47
192.9981,-4.38
193.0981,-5.14
193.1981,-5.51
193.2981,-3.91
193.3981,-2.6
193.4981,0.04
193.5981,0.42
193.6981,1.07
193.7981,1.07
193.8981,0.23
193.9981,-0.9
194.0981,-2.03
194.1981,-5.04
194.2981,-5.23
194.3981,-2.88
194.4981,-1.18
194.5981,0.23
194.6981,1.17
194.7981,0.23
194.8981,0.32
194.9981,1.17
195.0981,1.92
195.1981,0.51
195.2981,-0.81
195.3981,-0.81
195.4981,-2.03
195.5981,-4.29
195.6981,-6.36
195.7981,-8.15
195.8981,-6.74
195.9981,-2.5
196.0981,-0.24
196.1981,0.98
196.2981,2.77
196.3981,3.14
196.4981,2.86
196.5981,2.67
196.6981,1.17
196.7981,0.04
196.8981,-2.13
196.9981,-4.95
197.0981,-5.61
197.1981,-6.45
197.2981,-8.53
197.3981,-10.5
197.4981,-14.45
197.5981,-12.76
197.6981,-7.4
197.7981,-4.38
197.8981,-1.94
197.9981,-0.9
198.0981,-0.34
198.1981,-1.47
198.2981,-2.03
198.3981,-2.5
198.4981,-5.23
198.5981,-4.01
198.6981,-2.97
198.7981,-0.62
198.8981,0.42
198.9981,0.98
199.0981,1.83
199.1981,1.36
199.2981,0.04
199.3981,-1.37
199.4981,-4.38
199.5981,-6.36
199.6981,-6.55
199.7981,-4.95
199.8981,-2.41
199.9981,-0.53
200.0981,0.6
200.1981,0.89
200.2981,1.36
200.3981,1.83
200.4981,2.2
200.5981,2.11
200.6981,1.83
200.7981,0.04
200.8981,-0.71
200.9981,-1.47
201.0981,-4.48
201.1981,-8.24
201.2981,-8.34
201.3981,-5.42
201.4981,-2.31
201.5981,-0.62
201.6981,0.98
201.7981,1.17
201.8981,1.83
201.9981,2.2
202.0981,0.6
202.1981,-1.0
202.2981,-1.56
202.3981,-3.26
202.4981,-2.41
202.5981,-2.69
202.6981,-1.47
202.7981,-1.47
202.8981,-1.18
202.9981,-1.18
203.0981,-2.03
203.1981,-4.01
203.2981,-6.17
203.3981,-10.41
203.4981,-14.08
203.5981,-11.54
203.6981,-8.71
203.7981,-7.96
203.8981,-6.74
203.9981,-4.57
204.0981,-1.56
204.1981,1.07
204.2981,1.36
204.3981,2.49
204.4981,3.33
204.5981,2.39
204.6981,2.2
204.7981,0.79
204.8981,-1.47
204.9981,-4.48
205.0981,-7.49
205.1981,-8.34
205.2981,-5.8
205.3981,-3.73
205.4981,-1.37
205.5981,0.13
205.6981,-0.15
205.7981,0.98
205.8981,2.11
205.9981,1.73
206.0981,0.98
206.1981,1.92
206.2981,0.6
206.3981,-1.0
206.4981,-2.78
206.5981,-4.67
206.6981,-6.27
206.7981,-5.33
206.8981,-2.13
206.9981,-0.24
207.0981,-0.34
207.1981,0.79
207.2981,1.26
207.3981,1.07
207.4981,-0.71
207.5981,-2.78
207.6981,-4.01
207.7981,-3.35
207.8981,-3.35
207.9981,-2.88
208.0981,-1.56
208.1981,-0.24
208.2981,0.23
208.3981,0.98
208.4981,1.36
208.5981,0.23
208.6981,1.45
208.7981,0.7
208.8981,-0.81
208.9981,-2.6
209.0981,-5.51
209.1981,-11.16
209.2981,-16.34
209.3981,-18.5
209.4981,-16.05
209.5981,-8.15
209.6981,-4.67
209.7981,-0.15
209.8981,2.39
209.9981,2.67
210.0981,1.54
210.1981,0.89
210.2981,-0.06
210.3981,-1.0
210.4981,-3.26
210.5981,-4.29
210.6981,-4.85
210.7981,-4.1
210.8981,-4.57
210.9981,-2.88
211.0981,-1.94
211.1981,-0.81
211.2981,-0.06
211.3981,0.13
211.4981,0.79
211.5981,0.6
211.6981,0.32
211.7981,-1.37
211.8981,-2.88
211.9981,-4.1
212.0981,-3.82
212.1981,-2.69
212.2981,-0.81
212.3981,0.7
212.4981,2.2
212.5981,2.3
212.6981,2.58
212.7981,0.98
212.8981,-0.15
212.9981,-2.6
213.0981,-4.1
213.1981,-6.27
213.2981,-6.17
213.3981,-4.38
213.4981,-2.69
213.5981,-1.28
213.6981,-1.09
213.7981,0.79
213.8981,1.92
213.9981,1.92
214.0981,2.3
214.1981,2.67
214.2981,1.64
214.3981,0.04
214.4981,-1.09
214.5981,-4.38
214.6981,-7.49
214.7981,-9.65
214.8981,-6.64
214.9981,-4.57
215.0981,-3.82
215.1981,-3.91
215.2981,-6.93
215.3981,-11.73
215.4981,-11.16
215.5981,-7.4
215.6981,-4.1
215.7981,-3.44
215.8981,-3.07
215.9981,-2.6
216.0981,-1.47
216.1981,-1.47
216.2981,-1.37
216.3981,-1.37
216.4981,-0.71
216.5981,0.6
216.6981,-0.15
216.7981,1.26
216.8981,-0.24
216.9981,-0.43
217.0981,-1.18
217.1981,-3.26
217.2981,-5.7
217.3981,-6.93
217.4981,-5.14
217.5981,-2.03
217.6981,-0.53
217.7981,1.45
217.8981,2.49
217.9981,2.11
218.0981,2.2
218.1981,1.92
218.2981,0.7
218.3981,-0.24
218.4981,-2.41
218.5981,-4.76
218.6981,-7.11
218.7981,-6.83
218.8981,-4.1
218.9981,-2.6
219.0981,-1.94
219.1981,0.32
219.2981,1.64
219.3981,2.58
219.4981,1.92
219.5981,2.49
219.6981,2.11
219.7981,1.17
219.8981,0.79
219.9981,-1.47
220.0981,-3.91
220.1981,-6.93
220.2981,-5.33
220.3981,-3.16
220.4981,-2.03
220.5981,-0.62
220.6981,0.32
220.7981,0.79
220.8981,-1.47
220.9981,-2.5
221.0981,-4.95
221.1981,-8.9
221.2981,-13.33
221.3981,-16.9
221.4981,-13.33
221.5981,-7.68
221.6981,-4.2
221.7981,-2.41
221.8981,-0.34
221.9981,0.42
222.0981,0.89
222.1981,0.98
222.2981,0.7
222.3981,0.51
222.4981,-0.62
222.5981,-1.94
222.6981,-4.48
222.7981,-6.93
222.8981,-7.87
222.9981,-6.27
223.0981,-2.22
223.1981,-0.34
223.2981,1.07
223.3981,1.92
223.4981,2.58
223.5981,1.83
223.6981,1.45
223.7981,0.7
223.8981,-1.0
223.9981,-2.6
224.0981,-4.2
224.1981,-4.48
224.2981,-5.23
224.3981,-5.14
224.4981,-3.54
224.5981,-2.31
224.6981,-0.24
224.7981,0.42
224.8981,-0.06
224.9981,1.45
225.0981,0.7
225.1981,-1.18
225.2981,-1.28
225.3981,-2.69
225.4981,-2.5
225.5981,-4.67
225.6981,-2.88
225.7981,-0.62
225.8981,0.04
225.9981,0.7
226.0981,1.07
226.1981,0.6
226.2981,0.23
226.3981,0.04
226.4981,-0.71
226.5981,-2.97
226.6981,-4.85
226.7981,-6.55
226.8981,-6.74
226.9981,-5.98
227.0981,-6.36
227.1981,-7.11
227.2981,-11.16
227.3981,-12.2
227.4981,-7.21
227.5981,-2.5
227.6981,0.04
227.7981,1.17
227.8981,1.17
227.9981,-0.81
228.0981,-2.88
228.1981,-5.33
228.2981,-8.05
228.3981,-6.17
228.4981,-3.63
228.5981,-1.18
228.6981,0.42
228.7981,1.36
228.8981,2.02
228.9981,1.83
229.0981,1.36
229.1981,0.6
229.2981,0.6
229.3981,-1.66
229.4981,-2.6
229.5981,-2.6
229.6981,-2.78
229.7981,-3.16
229.8981,-2.22
229.9981,-1.28
230.0981,-0.24
230.1981,0.51
230.2981,0.13
230.3981,-0.34
230.4981,-0.71
230.5981,-0.24
230.6981,-4.1
230.7981,-5.7
230.8981,-7.11
230.9981,-5.23
231.0981,-3.07
231.1981,-1.09
231.2981,0.7
231.3981,1.45
231.4981,1.83
231.5981,1.73
231.6981,2.86
231.7981,1.26
231.8981,0.98
231.9981,0.32
232.0981,-0.9
232.1981,-3.63
232.2981,-4.95
232.3981,-5.89
232.4981,-5.51
232.5981,-3.91
232.6981,-2.5
232.7981,-0.9
232.8981,0.13
232.9981,-0.06
233.0981,-2.03
233.1981,-5.98
233.2981,-11.07
233.3981,-11.07
233.4981,-8.34
233.5981,-7.68
233.6981,-7.3
233.7981,-6.36
233.8981,-4.85
233.9981,-1.94
234.0981,-1.18
234.1981,-0.43
234.2981,-0.71
234.3981,0.23
234.4981,-0.24
234.5981,-1.66
234.6981,-2.41
234.7981,-2.69
234.8981,-2.69
234.9981,-2.22
235.0981,-2.69
235.1981,-1.09
235.2981,-0.71
235.3981,0.13
235.4981,1.36
235.5981,1.36
235.6981,1.45
235.7981,2.02
235.8981,1.26
235.9981,0.79
236.0981,-1.0
236.1981,-3.44
236.2981,-7.21
236.3981,-9.56
236.4981,-7.21
236.5981,-3.35
236.6981,-0.53
236.7981,1.64
236.8981,1.64
236.9981,2.02
237.0981,1.64
237.1981,1.73
237.2981,0.51
237.3981,0.51
237.4981,-1.66
237.5981,-2.22
237.6981,-4.57
237.7981,-4.67
237.8981,-5.04
237.9981,-4.01
238.0981,-2.88
238.1981,-1.66
238.2981,0.32
238.3981,0.42
238.4981,0.32
238.5981,0.98
238.6981,0.6
238.7981,-0.34
238.8981,-2.88
238.9981,-6.27
239.0981,-9.0
239.1981,-13.04
239.2981,-15.96
239.3981,-11.25
239.4981,-6.17
239.5981,-2.97
239.6981,-0.62
239.7981,-0.15
239.8981,-0.34
239.9981,-0.43
240.0981,-2.22
240.1981,-3.82
240.2981,-5.89
240.3981,-5.89
240.4981,-5.23
240.5981,-4.01
240.6981,-2.03
240.7981,-0.53
240.8981,0.51
240.9981,2.96
241.0981,3.05
241.1981,3.43
241.2981,2.86
241.3981,2.39
241.4981,1.45
241.5981,-0.62
241.6981,-3.07
241.7981,-6.83
241.8981,-8.05
241.9981,-5.23
242.0981,-3.07
242.1981,-1.37
242.2981,0.23
242.3981,0.98
242.4981,0.6
242.5981,0.89
242.6981,0.51
242.7981,0.89
242.8981,0.13
242.9981,-2.03
243.0981,-1.84
243.1981,-2.88
243.2981,-3.44
243.3981,-2.5
243.4981,-2.03
243.5981,-1.37
243.6981,-0.53
243.7981,-0.24
243.8981,-0.62
243.9981,-0.06
244.0981,-1.28
244.1981,-1.56
244.2981,-3.07
244.3981,-5.23
244.4981,-5.04
244.5981,-3.63
244.6981,-1.47
244.7981,0.04
244.8981,-0.34
244.9981,-1.56
245.0981,-4.85
245.1981,-8.71
245.2981,-10.41
245.3981,-7.11
245.4981,-4.57
245.5981,-3.54
245.6981,-4.95
245.7981,-5.51
245.8981,-7.58
245.9981,-7.87
246.0981,-5.33
246.1981,-2.97
246.2981,-1.18
246.3981,0.6
246.4981,1.07
246.5981,0.89
246.6981,2.2
246.7981,0.79
246.8981,0.6
246.9981,-0.06
247.0981,-2.97
247.1981,-4.85
247.2981,-4.85
247.3981,-4.1
247.4981,-2.41
247.5981,-1.09
247.6981,0.23
247.7981,0.32
247.8981,-0.15
247.9981,0.23
248.0981,-0.53
248.1981,-1.37
248.2981,-2.41
248.3981,-2.88
248.4981,-3.63
248.5981,-3.07
248.6981,-3.91
248.7981,-2.88
248.8981,-0.53
248.9981,0.98
249.0981,1.26
249.1981,1.73
249.2981,2.11
249.3981,1.17
249.4981,-0.24
249.5981,-1.37
249.6981,-3.63
249.7981,-6.64
249.8981,-10.31
249.9981,-7.4
250.0981,-4.76
250.1981,-2.5
250.2981,-0.62
250.3981,0.42
250.4981,1.83
250.5981,2.02
250.6981,2.39
250.7981,0.6
250.8981,-1.18
250.9981,-4.67
251.0981,-8.53
251.1981,-14.93
251.2981,-16.34
251.3981,-13.23
251.4981,-10.5
251.5981,-7.11
251.6981,-4.38
251.7981,-1.09
251.8981,-0.06
251.9981,0.13
252.0981,0.7
252.1981,-0.15
252.2981,-0.81
252.3981,-1.56
252.4981,-3.35
252.5981,-4.76
252.6981,-4.2
252.7981,-2.31
252.8981,-1.18
252.9981,0.23
253.0981,-0.43
253.1981,-0.15
253.2981,0.6
253.3981,0.51
253.4981,-0.81
253.5981,-1.09
253.6981,-2.88
253.7981,-4.57
253.8981,-5.33
253.9981,-5.8
254.0981,-5.14
254.1981,-3.35
254.2981,-1.66
254.3981,0.7
254.4981,1.64
254.5981,2.58
254.6981,2.02
254.7981,2.11
254.8981,2.39
254.9981,1.36
255.0981,-0.34
255.1981,-2.6
255.2981,-5.89
255.3981,-8.24
255.4981,-7.68
255.5981,-5.8
255.6981,-1.84
255.7981,-1.18
255.8981,0.42
255.9981,1.54
256.0981,1.36
256.1981,0.42
256.2981,-0.34
256.3981,0.42
256.4981,-0.53
256.5981,-2.03
256.6981,-3.26
256.7981,-5.04
256.8981,-6.83
256.9981,-9.09
257.0981,-11.16
257.1981,-14.45
257.2981,-10.69
257.3981,-5.7
257.4981,-2.69
257.5981,-1.28
257.6981,-2.41
257.7981,-3.44
257.8981,-4.57
257.9981,-5.89
258.0981,-6.74
258.1981,-2.97
258.2981,-0.9
258.3981,0.13
258.4981,0.7
258.5981,1.83
258.6981,1.73
258.7981,2.02
258.8981,0.42
258.9981,0.04
259.0981,-0.9
259.1981,-1.94
259.2981,-4.95
259.3981,-8.81
259.4981,-10.41
259.5981,-8.05
259.6981,-4.95
259.7981,-2.22
259.8981,-0.62
259.9981,1.17
260.0981,2.02
260.1981,2.02
260.2981,1.36
260.3981,1.17
260.4981,0.23
260.5981,-1.75
260.6981,-3.07
260.7981,-4.57
260.8981,-4.01
260.9981,-3.73
261.0981,-2.5
261.1981,-1.18
261.2981,-1.66
261.3981,-0.53
261.4981,-1.18
261.5981,-0.81
261.6981,-1.47
261.7981,-1.94
261.8981,-1.56
261.9981,-3.07
262.0981,-3.73
262.1981,-4.85
262.2981,-5.23
262.3981,-2.97
262.4981,-0.53
262.5981,-0.34
262.6981,0.23
262.7981,-0.34
262.8981,-1.56
262.9981,-7.02
263.0981,-11.16
263.1981,-15.21
263.2981,-14.36
263.3981,-13.98
263.4981,-12.57
263.5981,-7.87
263.6981,-4.76
263.7981,-2.31
263.8981,-1.18
263.9981,1.17
264.0981,1.07
264.1981,1.26
264.2981,1.64
264.3981,1.54
264.4981,1.45
264.5981,-0.43
264.6981,-2.03
264.7981,-3.73
264.8981,-5.7
264.9981,-7.11
265.0981,-6.83
265.1981,-4.1
265.2981,-1.75
265.3981,-0.71
265.4981,-0.24
265.5981,-0.24
265.6981,0.32
265.7981,-0.53
265.8981,-3.26
265.9981,-3.82
266.0981,-4.85
266.1981,-4.85
266.2981,-3.07
266.3981,-2.88
266.4981,-1.66
266.5981,-1.0
266.6981,0.04
266.7981,0.04
266.8981,-0.06
266.9981,-0.24
267.0981,-1.09
267.1981,-2.69
267.2981,-3.54
267.3981,-5.42
267.4981,-7.11
267.5981,-7.21
267.6981,-5.04
267.7981,-4.01
267.8981,-0.9
267.9981,0.13
268.0981,1.26
268.1981,1.26
268.2981,1.73
268.3981,1.54
268.4981,0.79
268.5981,-0.24
268.6981,-3.54
268.7981,-8.53
268.8981,-13.23
268.9981,-18.6
269.0981,-19.91
269.1981,-17.47
269.2981,-10.6
269.3981,-5.7
269.4981,-2.97
269.5981,-0.43
269.6981,0.32
269.7981,0.42
269.8981,0.79
269.9981,-0.06
270.0981,-1.18
270.1981,-2.03
270.2981,-3.73
270.3981,-5.61
270.4981,-4.2
270.5981,-2.78
270.6981,-2.22
270.7981,-0.9
270.8981,-1.09
270.9981,-0.71
271.0981,-0.34
271.1981,-1.84
271.2981,-3.35
271.3981,-5.23
271.4981,-7.4
271.5981,-7.87
271.6981,-5.42
271.7981,-4.67
271.8981,-3.63
271.9981,-1.28
272.0981,0.6
272.1981,0.6
272.2981,0.7
272.3981,0.23
272.4981,-0.34
272.5981,-0.62
272.6981,-1.47
272.7981,-3.54
272.8981,-6.74
272.9981,-10.5
273.0981,-11.44
273.1981,-7.21
273.2981,-3.16
273.3981,-1.84
273.4981,0.42
273.5981,2.2
273.6981,2.58
273.7981,1.92
273.8981,0.89
273.9981,0.42
274.0981,-1.18
274.1981,-3.54
274.2981,-4.29
274.3981,-5.51
274.4981,-5.33
274.5981,-5.61
274.6981,-5.61
274.7981,-6.36
274.8981,-8.34
274.9981,-11.91
275.0981,-16.15
275.1981,-13.98
275.2981,-9.28
275.3981,-5.89
275.4981,-5.7
275.5981,-4.95
275.6981,-4.57
275.7981,-4.85
275.8981,-3.26
275.9981,-2.22
276.0981,-1.28
276.1981,-0.53
276.2981,0.7
276.3981,0.32
276.4981,0.79
276.5981,-0.06
276.6981,-2.22
276.7981,-4.2
276.8981,-6.55
276.9981,-8.9
277.0981,-7.96
277.1981,-5.23
277.2981,-2.97
277.3981,-1.94
277.4981,-1.28
277.5981,0.13
277.6981,-0.34
277.7981,-0.15
277.8981,-0.34
277.9981,-0.15
278.0981,-0.81
278.1981,-2.03
278.2981,-2.6
278.3981,-7.4
278.4981,-9.47
278.5981,-10.78
278.6981,-7.4
278.7981,-3.91
278.8981,-1.0
278.9981,-0.15
279.0981,-0.62
279.1981,-0.81
279.2981,0.04
279.3981,-2.5
279.4981,-3.07
279.5981,-4.95
279.6981,-5.33
279.7981,-4.67
279.8981,-3.07
279.9981,-2.5
280.0981,-1.37
280.1981,-1.56
280.2981,-1.18
280.3981,-0.81
280.4981,-0.9
280.5981,-2.6
280.6981,-3.44
280.7981,-6.74
280.8981,-10.5
280.9981,-16.62
281.0981,-22.36
281.1981,-19.91
281.2981,-13.14
281.3981,-7.58
281.4981,-2.78
281.5981,-1.0
281.6981,-0.34
281.7981,0.79
281.8981,0.98
281.9981,0.42
282.0981,0.23
282.1981,-2.5
282.2981,-4.2
282.3981,-6.36
282.4981,-8.62
282.5981,-7.77
282.6981,-6.64
282.7981,-4.67
282.8981,-3.35
282.9981,-2.88
283.0981,-2.13
283.1981,-1.56
283.2981,-1.0
283.3981,-1.66
283.4981,-0.81
283.5981,-1.66
283.6981,-1.18
283.7981,-2.97
283.8981,-4.85
283.9981,-4.95
284.0981,-5.89
284.1981,-4.57
284.2981,-3.44
284.3981,-1.94
284.4981,-1.18
284.5981,-1.09
284.6981,-2.78
284.7981,-3.54
284.8981,-6.27
284.9981,-8.43
285.0981,-8.9
285.1981,-6.83
285.2981,-5.42
285.3981,-3.63
285.4981,-1.94
285.5981,-1.18
285.6981,-0.34
285.7981,-0.81
285.8981,-0.9
285.9981,-0.71
286.0981,-1.94
286.1981,-0.81
286.2981,-3.82
286.3981,-5.42
286.4981,-8.34
286.5981,-12.76
286.6981,-12.2
286.7981,-10.22
286.8981,-10.41
286.9981,-13.61
287.0981,-12.85
287.1981,-7.4
287.2981,-4.85
287.3981,-2.5
287.4981,-1.47
287.5981,-2.6
287.6981,-3.63
287.7981,-6.45
287.8981,-6.93
287.9981,-8.24
288.0981,-7.3
288.1981,-6.08
288.2981,-4.76
288.3981,-4.29
288.4981,-3.73
288.5981,-3.91
288.6981,-3.07
288.7981,-3.91
288.8981,-3.35
288.9981,-3.82
289.0981,-4.95
289.1981,-6.83
289.2981,-7.49
289.3981,-5.7
289.4981,-4.01
289.5981,-1.94
289.6981,-1.18
289.7981,-0.15
289.8981,-0.15
289.9981,0.98
290.0981,0.51
290.1981,-1.94
290.2981,-4.57
290.3981,-6.83
290.4981,-9.84
290.5981,-11.16
290.6981,-9.37
290.7981,-7.11
290.8981,-4.67
290.9981,-3.16
291.0981,-2.13
291.1981,-0.9
291.2981,-0.62
291.3981,0.23
291.4981,-0.34
291.5981,-1.56
291.6981,-1.75
291.7981,-3.54
291.8981,-5.7
291.9981,-9.94
292.0981,-11.73
292.1981,-9.94
292.2981,-6.45
292.3981,-3.63
292.4981,-2.6
292.5981,-2.6
292.6981,-4.85
292.7981,-6.64
292.8981,-11.07
292.9981,-16.34
293.0981,-15.68
293.1981,-12.1
293.2981,-9.0
293.3981,-6.36
293.4981,-4.2
293.5981,-4.76
293.6981,-3.63
293.7981,-2.78
293.8981,-3.63
293.9981,-2.5
294.0981,-3.16
294.1981,-2.88
294.2981,-4.38
294.3981,-5.42
294.4981,-7.4
294.5981,-10.88
294.6981,-12.01
294.7981,-9.65
294.8981,-5.7
294.9981,-3.35
295.0981,-2.22
295.1981,-0.06
295.2981,-0.24
295.3981,0.42
295.4981,-0.34
295.5981,-1.0
295.6981,-3.07
295.7981,-4.85
295.8981,-6.93
295.9981,-7.77
296.0981,-8.81
296.1981,-8.34
296.2981,-6.74
296.3981,-5.14
296.4981,-4.57
296.5981,-4.38
296.6981,-2.41
296.7981,-2.22
296.8981,-1.94
296.9981,-2.13
297.0981,-2.41
297.1981,-3.63
297.2981,-4.2
297.3981,-7.49
297.4981,-10.13
297.5981,-8.34
297.6981,-6.17
297.7981,-3.91
297.8981,-3.63
297.9981,-2.78
298.0981,-3.07
298.1981,-3.63
298.2981,-4.85
298.3981,-7.21
298.4981,-10.41
298.5981,-11.63
298.6981,-11.35
298.7981,-12.48
298.8981,-15.02
298.9981,-17.94
299.8981,-15.96
299.9981,-17.47
300.0981,-12.67
300.1981,-8.9
300.2981,-4.48
300.3981,-2.6
300.4981,-1.47
300.5981,-1.09
300.6981,-1.09
300.7981,-2.69
300.8981,-4.1
300.9981,-6.17
301.0981,-10.5
301.1981,-17.65
301.2981,-12.29
301.3981,-7.4
301.4981,-3.54
301.5981,-2.41
301.6981,-2.03
301.7981,-1.28
301.8981,-1.66
301.9981,-2.13
302.0981,-3.07
302.1981,-5.04
302.2981,-7.02
302.3981,-6.27
302.4981,-7.58
302.5981,-6.93
302.6981,-6.64
302.7981,-6.36
302.8981,-5.8
302.9981,-5.7
303.0981,-3.73
303.1981,-2.88
303.2981,-2.97
303.3981,-2.88
303.4981,-4.2
303.5981,-5.89
303.6981,-6.83
303.7981,-8.15
303.8981,-8.05
303.9981,-6.36
304.0981,-3.54
304.1981,-3.16
304.2981,-1.75
304.3981,-0.9
304.4981,-1.28
304.5981,-2.41
304.6981,-3.26
304.7981,-5.33
304.8981,-8.24
304.9981,-11.63
305.0981,-12.01
305.1981,-10.97
305.2981,-8.43
305.3981,-7.87
305.4981,-5.61
305.5981,-5.98
305.6981,-6.45
305.7981,-8.34
305.8981,-12.95
305.9981,-14.08
306.0981,-9.47
306.1981,-7.68
306.2981,-6.74
306.3981,-6.93
306.4981,-8.24
306.5981,-11.63
306.6981,-11.25
306.7981,-8.34
306.8981,-5.8
306.9981,-4.29
307.0981,-3.35
307.1981,-3.35
307.2981,-4.38
307.3981,-4.1
307.4981,-5.33
307.5981,-5.51
307.6981,-6.17
307.7981,-6.08
307.8981,-5.42
307.9981,-5.33
308.0981,-5.61
308.1981,-6.36
308.2981,-4.95
308.3981,-6.08
308.4981,-3.91
308.5981,-3.82
308.6981,-3.35
308.7981,-4.1
308.8981,-5.33
308.9981,-7.49
309.0981,-11.07
309.1981,-14.08
309.2981,-11.07
309.3981,-6.27
309.4981,-3.26
309.5981,-1.0
309.6981,-0.24
309.7981,0.13
309.8981,-0.53
309.9981,-0.62
310.0981,-1.75
310.1981,-3.44
310.2981,-4.57
310.3981,-6.83
310.4981,-9.0
310.5981,-10.6
310.6981,-11.44
310.7981,-11.25
310.8981,-10.22
310.9981,-7.11
311.0981,-5.89
311.1981,-4.2
311.2981,-2.5
311.3981,-3.26
311.4981,-3.63
311.5981,-5.42
311.6981,-9.47
311.7981,-13.23
311.8981,-19.44
311.9981,-21.51
312.0981,-17.37
312.1981,-11.91
312.2981,-8.24
312.3981,-4.67
312.4981,-3.54
312.5981,-3.63
312.6981,-4.38
312.7981,-5.7
312.8981,-6.93
312.9981,-7.49
313.0981,-7.58
313.1981,-7.87
313.2981,-7.4
313.3981,-6.55
313.4981,-5.61
313.5981,-5.89
313.6981,-5.04
313.7981,-4.1
313.8981,-2.6
313.9981,-2.41
314.0981,-2.31
314.1981,-2.6
314.2981,-2.97
314.3981,-4.01
314.4981,-7.4
314.5981,-13.23
314.6981,-21.42
314.7981,-13.8
314.8981,-7.3
314.9981,-4.76
315.0981,-4.1
315.1981,-3.07
315.2981,-2.6
315.3981,-2.6
315.4981,-3.07
315.5981,-3.54
315.6981,-3.73
315.7981,-5.8
315.8981,-5.14
315.9981,-6.17
316.0981,-6.64
316.1981,-7.68
316.2981,-7.68
316.3981,-7.49
316.4981,-7.02
316.5981,-5.14
316.6981,-5.04
316.7981,-3.63
316.8981,-3.73
316.9981,-5.14
317.0981,-6.45
317.1981,-9.18
317.2981,-10.13
317.3981,-10.78
317.4981,-9.56
317.5981,-9.09
317.6981,-10.5
317.7981,-12.67
317.8981,-12.85
317.9981,-12.57
318.0981,-9.75
318.1981,-8.05
318.2981,-7.49
318.3981,-9.28
318.4981,-10.6
318.5981,-11.07
318.6981,-11.35
318.7981,-10.03
318.8981,-9.18
318.9981,-7.3
319.0981,-5.04
319.1981,-3.63
319.2981,-2.22
319.3981,-1.09
319.4981,-0.81
319.5981,-1.84
319.6981,-1.66
319.7981,-2.6
319.8981,-4.38
319.9981,-7.21
320.0981,-11.91
320.1981,-15.68
320.2981,-11.54
320.3981,-8.53
320.4981,-5.98
320.5981,-5.51
320.6981,-6.17
320.7981,-6.64
320.8981,-6.93
320.9981,-6.83
321.0981,-6.45
321.1981,-6.55
321.2981,-6.55
321.3981,-7.4
321.4981,-7.3
321.5981,-7.58
321.6981,-7.02
321.7981,-6.93
321.8981,-6.27
321.9981,-4.2
322.0981,-3.07
322.1981,-3.44
322.2981,-4.01
322.3981,-4.1
322.4981,-5.8
322.5981,-9.18
322.6981,-14.74
322.7981,-13.8
322.8981,-9.75
322.9981,-6.55
323.0981,-4.67
323.1981,-2.13
323.2981,-1.66
323.3981,-2.78
323.4981,-4.38
323.5981,-6.83
323.6981,-10.5
323.7981,-17.28
323.8981,-20.38
323.9981,-16.24
324.0981,-15.02
324.1981,-15.4
324.2981,-18.31
324.3981,-15.3
324.4981,-10.88
324.5981,-6.55
324.6981,-3.73
324.7981,-2.97
324.8981,-2.22
324.9981,-2.13
325.0981,-2.5
325.1981,-3.35
325.2981,-4.85
325.3981,-7.3
325.4981,-9.47
325.5981,-9.47
325.6981,-7.21
325.7981,-5.51
325.8981,-3.91
325.9981,-4.2
326.0981,-4.67
326.1981,-5.33
326.2981,-6.08
326.3981,-7.3
326.4981,-8.34
326.5981,-8.34
326.6981,-9.84
326.7981,-9.28
326.8981,-9.28
326.9981,-9.75
327.0981,-8.62
327.1981,-7.02
327.2981,-5.51
327.3981,-3.63
327.4981,-2.88
327.5981,-3.16
327.6981,-3.07
327.7981,-3.82
327.8981,-6.45
327.9981,-9.37
328.0981,-15.49
328.1981,-21.33
328.2981,-11.82
328.3981,-8.05
328.4981,-5.8
328.5981,-3.63
328.6981,-2.5
328.7981,-3.54
328.8981,-2.97
328.9981,-3.91
329.0981,-2.78
329.1981,-4.01
329.2981,-4.85
329.3981,-5.42
329.4981,-7.49
329.5981,-11.82
329.6981,-17.47
329.7981,-25.09
329.8981,-25.18
329.9981,-17.09
330.0981,-12.01
330.1981,-7.11
330.2981,-6.36
330.3981,-4.76
330.4981,-6.17
330.5981,-7.21
330.6981,-9.09
330.7981,-13.33
330.8981,-12.85
330.9981,-9.65
331.0981,-7.11
331.1981,-5.42
331.2981,-3.73
331.3981,-4.29
331.4981,-3.91
331.5981,-4.57
331.6981,-5.51
331.7981,-5.33
331.8981,-7.96
331.9981,-7.58
332.0981,-8.53
332.1981,-10.6
332.2981,-11.54
332.3981,-13.42
332.4981,-12.67
332.5981,-8.71
332.6981,-6.36
332.7981,-3.26
332.8981,-2.22
332.9981,-1.75
333.0981,-2.5
333.1981,-2.88
333.2981,-4.2
333.3981,-5.7
333.4981,-9.18
333.5981,-13.98
333.6981,-15.58
333.7981,-12.67
333.8981,-9.47
333.9981,-7.77
334.0981,-7.87
334.1981,-7.68
334.2981,-8.24
334.3981,-7.21
334.4981,-6.17
334.5981,-7.02
334.6981,-5.8
334.7981,-5.8
334.8981,-5.33
334.9981,-6.93
335.0981,-7.49
335.1981,-9.09
335.2981,-8.15
335.3981,-8.53
335.4981,-9.09
335.5981,-9.65
335.6981,-14.27
335.7981,-18.5
335.8981,-16.71
335.9981,-13.98
336.0981,-13.89
336.1981,-18.78
336.2981,-17.94
336.3981,-11.63
336.4981,-8.43
336.5981,-7.11
336.6981,-5.33
336.7981,-4.67
336.8981,-4.85
336.9981,-5.89
337.0981,-6.08
337.1981,-5.8
337.2981,-4.76
337.3981,-5.23
337.4981,-7.3
337.5981,-8.9
337.6981,-11.44
337.7981,-15.68
337.8981,-17.0
337.9981,-11.07
338.0981,-7.21
338.1981,-4.48
338.2981,-3.44
338.3981,-3.44
338.4981,-2.97
338.5981,-3.07
338.6981,-4.57
338.7981,-6.74
338.8981,-8.43
338.9981,-9.65
339.0981,-9.65
339.1981,-8.05
339.2981,-6.83
339.3981,-6.17
339.4981,-6.36
339.5981,-6.36
339.6981,-7.96
339.7981,-8.81
339.8981,-10.03
339.9981,-9.56
340.0981,-10.22
340.1981,-9.84
340.2981,-9.94
340.3981,-11.63
340.4981,-13.04
340.5981,-11.25
340.6981,-8.15
340.7981,-5.7
340.8981,-4.2
340.9981,-3.16
341.0981,-2.69
341.1981,-2.97
341.2981,-4.29
341.3981,-6.74
341.4981,-10.97
341.5981,-17.94
341.6981,-26.88
341.7981,-29.7
341.8981,-21.14
341.9981,-14.64
342.0981,-9.94
342.1981,-8.34
342.2981,-5.98
342.3981,-6.08
342.4981,-5.51
342.5981,-5.42
342.6981,-4.76
342.7981,-4.38
342.8981,-5.23
342.9981,-4.95
343.0981,-6.45
343.1981,-8.24
343.2981,-12.67
343.3981,-15.11
343.4981,-12.2
343.5981,-10.13
343.6981,-8.05
343.7981,-6.55
343.8981,-6.45
343.9981,-6.36
344.0981,-6.93
344.1981,-9.65
344.2981,-10.31
344.3981,-10.69
344.4981,-8.24
344.5981,-7.3
344.6981,-5.7
344.7981,-6.08
344.8981,-6.45
344.9981,-6.17
345.0981,-6.08
345.1981,-8.05
345.2981,-7.77
345.3981,-8.24
345.4981,-9.0
345.5981,-8.81
345.6981,-11.07
345.7981,-12.95
345.8981,-17.37
345.9981,-17.37
346.0981,-12.1
346.1981,-7.68
346.2981,-6.83
346.3981,-5.42
346.4981,-3.91
346.5981,-4.57
346.6981,-5.04
346.7981,-6.45
346.8981,-8.81
346.9981,-12.01
347.0981,-14.17
347.1981,-14.17
347.2981,-13.33
347.3981,-12.85
347.4981,-14.64
347.5981,-17.47
347.6981,-22.36
347.7981,-21.51
347.8981,-15.4
347.9981,-11.07
348.0981,-9.09
348.1981,-7.21
348.2981,-6.64
348.3981,-7.02
348.4981,-8.71
348.5981,-10.41
348.6981,-12.1
348.7981,-12.29
348.8981,-9.18
348.9981,-7.3
349.0981,-6.27
349.1981,-5.89
349.2981,-5.61
349.3981,-7.11
349.4981,-9.18
349.5981,-12.67
349.6981,-19.73
349.7981,-20.01
349.8981,-12.85
349.9981,-10.13
350.0981,-8.9
350.1981,-6.93
350.2981,-6.45
350.3981,-7.21
350.4981,-6.27
350.5981,-5.23
350.6981,-5.23
350.7981,-4.85
350.8981,-5.8
350.9981,-6.36
351.0981,-6.64
351.1981,-9.47
351.2981,-13.33
351.3981,-20.85
351.4981,-18.41
351.5981,-12.29
351.6981,-8.81
351.7981,-6.64
351.8981,-6.17
351.9981,-5.7
352.0981,-6.93
352.1981,-7.68
352.2981,-8.9
352.3981,-10.5
352.4981,-10.69
352.5981,-9.56
352.6981,-9.18
352.7981,-8.9
352.8981,-9.65
352.9981,-10.78
353.0981,-11.91
353.1981,-13.04
353.2981,-12.85
353.3981,-13.04
353.4981,-13.89
353.5981,-17.65
353.6981,-21.98
353.7981,-20.2
353.8981,-17.75
353.9981,-17.47
354.0981,-15.02
354.1981,-11.07
354.2981,-8.34
354.3981,-5.7
354.4981,-3.73
354.5981,-4.76
354.6981,-4.95
354.7981,-5.14
354.8981,-5.89
354.9981,-8.62
355.0981,-11.82
355.1981,-15.11
355.2981,-14.93
355.3981,-14.83
355.4981,-13.98
355.5981,-13.42
355.6981,-12.48
355.7981,-11.54
355.8981,-11.07
355.9981,-8.9
356.0981,-7.3
356.1981,-6.08
356.2981,-5.23
356.3981,-6.64
356.4981,-7.02
356.5981,-8.24
356.6981,-11.63
356.7981,-15.87
356.8981,-15.4
356.9981,-10.88
357.0981,-8.81
357.1981,-7.3
357.2981,-6.55
357.3981,-7.3
357.4981,-8.43
357.5981,-9.75
357.6981,-11.35
357.7981,-12.67
357.8981,-11.44
357.9981,-9.0
358.0981,-8.43
358.1981,-7.4
358.2981,-7.11
358.3981,-7.96
358.4981,-8.71
358.5981,-8.34
358.6981,-8.81
358.7981,-8.24
358.8981,-8.34
358.9981,-8.15
359.0981,-9.47
359.1981,-12.57
359.2981,-18.97
359.3981,-42.88
359.4981,-24.43
359.5981,-21.8
359.6981,-21.33
359.7981,-14.36
359.8981,-10.03
359.9981,-7.58
360.0981,-6.45
360.1981,-5.89
360.2981,-5.89
360.3981,-8.81
360.4981,-9.65
360.5981,-10.03
360.6981,-11.16
360.7981,-11.07
360.8981,-12.01
360.9981,-12.67
361.0981,-16.15
361.1981,-16.71
361.2981,-13.23
361.3981,-10.6
361.4981,-7.11
361.5981,-5.61
361.6981,-5.42
361.7981,-5.7
361.8981,-7.3
361.9981,-8.53
362.0981,-13.33
362.1981,-17.0
362.2981,-15.58
362.3981,-11.44
362.4981,-9.56
362.5981,-8.34
362.6981,-8.24
362.7981,-9.18
362.8981,-10.78
362.9981,-13.51
363.0981,-15.58
363.1981,-14.64
363.2981,-11.91
363.3981,-10.41
363.4981,-9.09
363.5981,-8.43
363.6981,-9.37
363.7981,-9.75
363.8981,-9.37
363.9981,-8.9
364.0981,-8.43
364.1981,-5.98
364.2981,-5.61
364.3981,-5.33
364.4981,-6.17
364.5981,-8.24
364.6981,-9.37
364.7981,-12.1
364.8981,-23.3
364.9981,-23.4
365.0981,-13.04
365.1981,-11.82
365.2981,-11.73
365.3981,-12.76
365.4981,-17.37
365.5981,-23.3
365.6981,-29.04
365.7981,-31.4
365.8981,-32.15
365.9981,-31.02
366.0981,-31.68
366.1981,-31.49
366.2981,-31.77
366.3981,-32.9
366.4981,-34.69
366.5981,-36.67
366.6981,-37.51
366.7981,-36.01
366.8981,-35.44
366.9981,-37.04
367.0981,-36.48
367.1981,-37.04
367.2981,-38.64
367.3981,-41.84
367.4981,-45.32
367.5981,-43.16
367.6981,-39.21
367.7981,-36.48
367.8981,-34.78
367.9981,-33.84
368.0981,-33.75
368.1981,-34.31
368.2981,-35.73
368.3981,-37.7
368.4981,-40.71
368.5981,-44.95
368.6981,-46.74
368.7981,-45.7
368.8981,-44.48
368.9981,-44.29
369.0981,-45.04
369.1981,-45.04
369.2981,-42.31
369.3981,-39.4
369.4981,-36.76
369.5981,-34.97
369.6981,-34.03
369.7981,-33.65
369.8981,-34.03
369.9981,-35.25
370.0981,-37.33
370.1981,-40.62
370.2981,-45.32
370.3981,-45.23
370.4981,-41.28
370.5981,-38.64
370.6981,-37.51
370.7981,-37.33
370.8981,-38.08
370.9981,-39.96
371.0981,-42.69
371.1981,-44.29
371.2981,-43.63
371.3981,-40.81
371.4981,-39.11
371.5981,-38.45
371.6981,-38.74
371.7981,-39.68
371.8981,-41.47
371.9981,-42.78
372.0981,-41.75
372.1981,-39.4
372.2981,-37.61
372.3981,-36.76
372.4981,-36.67
372.5981,-37.42
372.6981,-39.11
372.7981,-42.5
372.8981,-50.6
372.9981,-48.81
373.0981,-41.94
373.1981,-38.08
373.2981,-36.01
373.3981,-34.97
373.4981,-34.41
373.5981,-34.88
373.6981,-35.44
373.7981,-36.29
373.8981,-36.76
373.9981,-36.76
374.0981,-36.76
374.1981,-36.67
374.2981,-37.14
374.3981,-38.17
374.4981,-40.43
374.5981,-44.76
374.6981,-58.5
374.7981,-49.75
374.8981,-42.78
374.9981,-39.3
375.0981,-37.61
375.1981,-37.04
375.2981,-37.33
375.3981,-38.36
375.4981,-40.24
375.5981,-42.5
375.6981,-42.41
375.7981,-40.43
375.8981,-38.27
375.9981,-37.23
376.0981,-36.57
376.1981,-36.76
376.2981,-37.7
376.3981,-39.3
376.4981,-41.09
376.5981,-42.69
376.6981,-41.65
376.7981,-40.43
376.8981,-39.77
376.9981,-39.68
377.0981,-40.24
377.1981,-41.28
377.2981,-41.65
377.3981,-40.34
377.4981,-38.36
377.5981,-36.38
377.6981,-35.35
377.7981,-34.69
377.8981,-34.88
377.9981,-35.91
378.0981,-37.8
378.1981,-41.28
378.2981,-48.81
378.3981,-55.4
378.4981,-44.29
378.5981,-40.24
378.6981,-38.08
378.7981,-37.33
378.8981,-37.23
378.9981,-37.51
379.0981,-38.27
379.1981,-37.98
379.2981,-37.04
379.3981,-36.2
379.4981,-35.25
379.5981,-34.97
379.6981,-35.35
379.7981,-36.29
379.8981,-38.45
379.9981,-42.03
380.0981,-45.98
380.1981,-44.95
380.2981,-40.62
380.3981,-37.89
380.4981,-36.76
380.5981,-36.38
380.6981,-37.04
380.7981,-38.93
380.8981,-42.31
380.9981,-49.37
381.0981,-51.44
381.1981,-43.63
381.2981,-39.77
381.3981,-37.98
381.4981,-37.33
381.5981,-37.89
381.6981,-38.64
381.7981,-40.24
381.8981,-41.94
381.9981,-41.94
382.0981,-40.71
382.1981,-39.49
382.2981,-39.02
382.3981,-39.3
382.4981,-40.9
382.5981,-43.63
382.6981,-47.4
382.7981,-44.85
382.8981,-40.34
382.9981,-37.14
383.0981,-35.25
383.1981,-34.22
383.2981,-33.94
383.3981,-34.41
383.4981,-35.54
383.5981,-37.33
383.6981,-40.43
383.7981,-43.91
383.8981,-45.42
383.9981,-43.25
384.0981,-41.47
384.1981,-41.18
384.2981,-41.75
384.3981,-43.54
384.4981,-46.74
384.5981,-47.21
384.6981,-42.69
384.7981,-40.05
384.8981,-37.98
384.9981,-37.14
385.0981,-37.33
385.1981,-38.27
385.2981,-39.87
385.3981,-41.75
385.4981,-42.03
385.5981,-39.87
385.6981,-37.7
385.7981,-36.01
385.8981,-35.44
385.9981,-35.16
386.0981,-35.91
386.1981,-37.51
386.2981,-39.96
386.3981,-44.2
386.4981,-47.4
386.5981,-44.48
386.6981,-41.18
386.7981,-39.11
386.8981,-38.08
386.9981,-37.98
387.0981,-38.74
387.1981,-39.96
387.2981,-40.53
387.3981,-39.96
387.4981,-38.93
387.5981,-38.08
387.6981,-37.8
387.7981,-38.36
387.8981,-39.96
387.9981,-43.16
388.0981,-51.07
388.1981,-55.11
388.2981,-44.1
388.3981,-40.05
388.4981,-37.61
388.5981,-36.95
388.6981,-36.85
388.7981,-37.51
388.8981,-39.4
388.9981,-41.28
389.0981,-42.41
389.1981,-41.18
389.2981,-39.11
389.3981,-37.33
389.4981,-36.48
389.5981,-36.48
389.6981,-37.14
389.7981,-38.45
389.8981,-40.81
389.9981,-43.72
390.0981,-44.48
390.1981,-43.44
390.2981,-41.75
390.3981,-41.28
390.4981,-42.03
390.5981,-44.57
390.6981,-49.18
390.7981,-49.84
390.8981,-43.82
390.9981,-39.49
391.0981,-36.85
391.1981,-35.35
391.2981,-34.5
391.3981,-34.6
391.4981,-35.25
391.5981,-36.85
391.6981,-39.3
391.7981,-43.35
391.8981,-49.84
391.9981,-47.96
392.0981,-44.2
392.1981,-42.03
392.2981,-41.65
392.3981,-41.65
392.4981,-41.84
392.5981,-41.18
392.6981,-39.4
392.7981,-37.42
392.8981,-36.01
392.9981,-35.07
393.0981,-34.78
393.1981,-35.25
393.2981,-36.38
393.3981,-38.45
393.4981,-42.13
393.5981,-49.65
393.6981,-51.72
393.7981,-43.72
393.8981,-40.71
393.9981,-39.02
394.0981,-38.83
394.1981,-39.68
394.2981,-41.65
394.3981,-44.85
394.4981,-48.52
394.5981,-45.7
394.6981,-41.75
394.7981,-39.21
394.8981,-37.98
394.9981,-37.8
395.0981,-38.27
395.1981,-39.49
395.2981,-40.53
395.3981,-41.18
395.4981,-39.87
395.5981,-38.64
395.6981,-37.7
395.7981,-37.23
395.8981,-37.7
395.9981,-39.21
396.0981,-42.03
396.1981,-47.68
396.2981,-52.01
396.3981,-44.95
396.4981,-40.53
396.5981,-38.08
396.6981,-36.76
396.7981,-36.57
396.8981,-37.04
396.9981,-38.08
397.0981,-39.87
397.1981,-42.13
397.2981,-43.44
397.3981,-43.25
397.4981,-42.69
397.5981,-42.5
397.6981,-43.07
397.7981,-44.95
397.8981,-47.58
397.9981,-47.4
398.0981,-44.01
398.1981,-40.43
398.2981,-38.45
398.3981,-37.23
398.4981,-36.85
398.5981,-37.33
398.6981,-38.45
398.7981,-40.9
398.8981,-43.72
398.9981,-44.29
399.0981,-41.47
399.1981,-38.93
399.2981,-37.51
399.3981,-36.76
399.4981,-36.67
399.5981,-37.42
399.6981,-39.21
399.7981,-41.94
399.8981,-46.45
399.9981,-51.72
400.0981,-48.24
400.1981,-44.95
400.2981,-43.54
400.3981,-43.44
400.4981,-43.63
400.5981,-43.35
400.6981,-42.13
400.7981,-39.87
400.8981,-38.08
400.9981,-36.85
401.0981,-36.2
401.1981,-36.29
401.2981,-37.14
401.3981,-39.11
401.4981,-42.22
401.5981,-49.09
401.6981,-54.74
401.7981,-44.85
401.8981,-40.53
401.9981,-38.27
402.0981,-37.14
402.1981,-36.85
402.2981,-37.51
402.3981,-38.45
402.4981,-40.05
402.5981,-41.0
402.6981,-40.9
402.7981,-39.96
402.8981,-39.49
402.9981,-39.11
403.0981,-39.87
403.1981,-41.84
403.2981,-45.23
403.3981,-49.09
403.4981,-46.74
403.5981,-43.07
403.6981,-40.43
403.7981,-39.4
403.8981,-39.11
403.9981,-40.05
404.0981,-42.6
404.1981,-48.24
404.2981,-57.65
404.3981,-46.92
404.4981,-41.28
404.5981,-38.36
404.6981,-36.57
404.7981,-36.01
404.8981,-35.82
404.9981,-36.2
405.0981,-37.42
405.1981,-38.83
405.2981,-40.15
405.3981,-40.34
405.4981,-40.05
405.5981,-39.87
405.6981,-40.05
405.7981,-41.37
405.8981,-44.1
405.9981,-50.78
406.0981,-57.47
406.1981,-45.51
406.2981,-40.9
406.3981,-38.45
406.4981,-37.04
406.5981,-36.67
406.6981,-36.95
406.7981,-38.17
406.8981,-40.62
406.9981,-44.1
407.0981,-49.28
407.1981,-47.77
407.2981,-43.63
407.3981,-41.28
407.4981,-40.43
407.5981,-41.0
407.6981,-42.31
407.7981,-45.32
407.8981,-48.52
407.9981,-47.02
408.0981,-42.88
408.1981,-40.53
408.2981,-38.74
408.3981,-38.17
408.4981,-38.45
408.5981,-39.49
408.6981,-40.9
408.7981,-42.22
408.8981,-41.94
408.9981,-40.05
409.0981,-38.45
409.1981,-37.42
409.2981,-37.04
409.3981,-37.23
409.4981,-38.93
409.5981,-41.09
409.6981,-44.29
409.7981,-46.64
409.8981,-44.1
409.9981,-40.71
410.0981,-38.64
410.1981,-37.51
410.2981,-37.51
410.3981,-37.98
410.4981,-38.83
410.5981,-39.77
410.6981,-40.81
410.7981,-40.62
410.8981,-40.43
410.9981,-40.05
411.0981,-40.43
411.1981,-41.37
411.2981,-44.85
411.3981,-50.88
411.4981,-53.51
411.5981,-44.85
411.6981,-40.9
411.7981,-38.27
411.8981,-36.95
411.9981,-36.76
412.0981,-37.04
412.1981,-37.89
412.2981,-40.05
412.3981,-43.63
412.4981,-49.37
412.5981,-49.37
412.6981,-44.48
412.7981,-41.65
412.8981,-40.34
412.9981,-40.24
413.0981,-41.0
413.1981,-42.22
413.2981,-44.1
413.3981,-46.55
413.4981,-46.92
413.5981,-46.08
413.6981,-44.85
413.7981,-45.61
413.8981,-48.15
413.9981,-52.1
414.0981,-50.88
414.1981,-44.2
414.2981,-40.05
414.3981,-37.42
414.4981,-35.82
414.5981,-34.88
414.6981,-34.78
414.7981,-35.07
414.8981,-35.91
414.9981,-37.98
415.0981,-40.71
415.1981,-44.85
415.2981,-52.95
415.3981,-54.17
415.4981,-47.77
415.5981,-45.61
415.6981,-44.67
415.7981,-44.95
415.8981,-45.32
415.9981,-45.32
416.0981,-43.35
416.1981,-41.65
416.2981,-40.24
416.3981,-39.49
416.4981,-39.77
416.5981,-40.9
416.6981,-43.07
416.7981,-47.96
416.8981,-59.91
416.9981,-50.12
417.0981,-44.29
417.1981,-41.28
417.2981,-39.68
417.3981,-39.49
417.4981,-40.15
417.5981,-42.13
417.6981,-45.98
417.7981,-53.14
417.8981,-50.6
417.9981,-44.38
418.0981,-40.9
418.1981,-39.21
418.2981,-38.27
418.3981,-38.45
418.4981,-38.93
418.5981,-39.87
418.6981,-40.62
418.7981,-41.09
418.8981,-40.81
418.9981,-39.96
419.0981,-39.87
419.1981,-40.34
419.2981,-42.13
419.3981,-44.95
419.4981,-49.65
419.5981,-49.65
419.6981,-44.85
419.7981,-41.18
419.8981,-39.21
419.9981,-37.98
420.0981,-37.89
420.1981,-38.45
420.2981,-39.87
420.3981,-43.16
420.4981,-47.58
420.5981,-52.57
420.6981,-46.45
420.7981,-42.88
420.8981,-40.9
420.9981,-39.96
421.0981,-40.15
421.1981,-41.37
421.2981,-43.54
421.3981,-45.7
421.4981,-45.23
421.5981,-43.16
421.6981,-41.47
421.7981,-40.9
421.8981,-41.28
421.9981,-42.78
422.0981,-45.8
422.1981,-53.61
422.2981,-55.58
422.3981,-45.04
422.4981,-40.71
422.5981,-38.27
422.6981,-36.95
422.7981,-36.48
422.8981,-36.67
422.9981,-37.61
423.0981,-39.49
423.1981,-42.03
423.2981,-45.89
423.3981,-46.27
423.4981,-42.13
423.5981,-39.87
423.6981,-37.98
423.7981,-37.23
423.8981,-37.14
423.9981,-36.38
424.0981,-35.54
424.1981,-34.03
424.2981,-32.81
424.3981,-31.68
424.4981,-30.83
424.5981,-29.8
424.6981,-30.27
424.7981,-31.49
424.8981,-33.18
424.9981,-36.67
425.0981,-39.96
425.1981,-36.29
425.2981,-31.11
425.3981,-24.34
425.4981,-18.13
425.5981,-14.45
425.6981,-13.89
425.7981,-13.7
425.8981,-16.62
425.9981,-22.17
426.0981,-21.51
426.1981,-17.28
426.2981,-15.11
426.3981,-14.36
426.4981,-14.64
426.5981,-16.15
426.6981,-18.5
426.7981,-20.29
426.8981,-17.47
426.9981,-14.27
427.0981,-12.38
427.1981,-11.07
427.2981,-10.78
427.3981,-13.7
427.4981,-17.75
427.5981,-28.57
427.6981,-21.61
427.7981,-13.89
427.8981,-9.84
427.9981,-7.3
428.0981,-5.33
428.1981,-5.14
428.2981,-5.7
428.3981,-6.27
428.4981,-7.02
428.5981,-7.87
428.6981,-10.78
428.7981,-14.08
428.8981,-16.71
428.9981,-20.95
429.0981,-22.74
429.1981,-26.69
429.2981,-46.45
429.3981,-25.28
429.4981,-18.5
429.5981,-14.55
429.6981,-12.29
429.7981,-9.94
429.8981,-8.53
429.9981,-9.37
430.0981,-10.22
430.1981,-12.1
430.2981,-16.43
430.3981,-24.34
430.4981,-26.31
430.5981,-16.53
430.6981,-12.67
430.7981,-10.6
430.8981,-10.97
430.9981,-12.2
431.0981,-15.87
431.1981,-21.14
431.2981,-28.2
431.3981,-29.89
431.4981,-36.76
431.5981,-29.14
431.6981,-21.42
431.7981,-17.75
431.8981,-17.75
431.9981,-17.37
432.0981,-15.77
432.1981,-14.83
432.2981,-13.04
432.3981,-10.78
432.4981,-10.13
432.5981,-7.87
432.6981,-7.68
432.7981,-9.0
432.8981,-8.71
432.9981,-11.25
433.0981,-11.07
433.1981,-11.16
433.2981,-10.22
433.3981,-8.71
433.4981,-7.4
433.5981,-8.05
433.6981,-8.15
433.7981,-8.43
433.8981,-9.28
433.9981,-11.25
434.0981,-13.33
434.1981,-14.83
434.2981,-16.05
434.3981,-15.77
434.4981,-15.96
434.5981,-17.56
434.6981,-20.01
434.7981,-27.63
434.8981,-29.98
434.9981,-18.97
435.0981,-14.45
435.1981,-12.1
435.2981,-10.5
435.3981,-10.97
435.4981,-10.78
435.5981,-12.29
435.6981,-13.98
435.7981,-15.4
435.8981,-16.15
435.9981,-12.95
436.0981,-12.1
436.1981,-10.31
436.2981,-9.37
436.3981,-9.0
436.4981,-10.41
436.5981,-12.48
436.6981,-13.33
436.7981,-19.16
436.8981,-25.09
436.9981,-29.51
437.0981,-30.83
437.1981,-35.91
437.2981,-41.09
437.3981,-40.34
437.4981,-27.16
437.5981,-19.16
437.6981,-13.8
437.7981,-10.13
437.8981,-9.47
437.9981,-8.24
438.0981,-7.87
438.1981,-8.15
438.2981,-8.62
438.3981,-10.31
438.4981,-13.42
438.5981,-15.58
438.6981,-16.05
438.7981,-14.74
438.8981,-14.17
438.9981,-12.67
439.0981,-12.1
439.1981,-13.89
439.2981,-15.77
439.3981,-21.04
439.4981,-29.8
439.5981,-26.69
439.6981,-19.82
439.7981,-18.13
439.8981,-18.6
439.9981,-17.37
440.0981,-19.35
440.1981,-18.78
440.2981,-16.62
440.3981,-13.61
440.4981,-11.35
440.5981,-10.13
440.6981,-8.71
440.7981,-8.81
440.8981,-9.84
440.9981,-10.31
441.0981,-11.35
441.1981,-13.04
441.2981,-13.23
441.3981,-11.63
441.4981,-10.88
441.5981,-9.37
441.6981,-9.18
441.7981,-8.9
441.8981,-9.94
441.9981,-10.5
442.0981,-11.73
442.1981,-13.23
442.2981,-13.98
442.3981,-14.27
442.4981,-13.42
442.5981,-15.02
442.6981,-15.77
442.7981,-18.31
442.8981,-19.54
442.9981,-19.35
443.0981,-20.76
443.1981,-23.3
443.2981,-21.23
443.3981,-14.83
443.4981,-12.67
443.5981,-9.84
443.6981,-10.41
443.7981,-13.23
443.8981,-16.62
443.9981,-21.42
444.0981,-20.01
444.1981,-15.4
444.2981,-12.48
444.3981,-10.6
444.4981,-9.65
444.5981,-10.88
444.6981,-10.88
444.7981,-12.76
444.8981,-15.4
444.9981,-18.69
445.0981,-22.93
445.1981,-25.47
445.2981,-27.63
445.3981,-26.97
445.4981,-21.51
445.5981,-18.03
445.6981,-13.89
445.7981,-11.35
445.8981,-8.05
445.9981,-6.83
446.0981,-7.02
446.1981,-6.36
446.2981,-6.17
446.3981,-7.11
446.4981,-7.77
446.5981,-9.65
446.6981,-12.2
446.7981,-13.23
446.8981,-13.23
446.9981,-12.38
447.0981,-10.6
447.1981,-9.94
447.2981,-10.31
447.3981,-10.41
447.4981,-11.16
447.5981,-11.35
447.6981,-11.44
447.7981,-10.88
447.8981,-11.44
447.9981,-9.84
448.0981,-10.6
448.1981,-12.2
448.2981,-14.17
448.3981,-17.0
448.4981,-19.91
448.5981,-18.69
448.6981,-14.74
448.7981,-13.7
448.8981,-14.36
448.9981,-16.81
449.0981,-21.89
449.1981,-27.07
449.2981,-25.94
449.3981,-21.61
449.4981,-16.05
449.5981,-13.33
449.6981,-9.84
449.7981,-8.71
449.8981,-8.71
449.9981,-8.34
450.0981,-8.53
450.1981,-10.41
450.2981,-11.07
450.3981,-13.42
450.4981,-13.14
450.5981,-13.04
450.6981,-13.61
450.7981,-14.64
450.8981,-16.05
450.9981,-17.56
451.0981,-16.43
451.1981,-13.98
451.2981,-11.44
451.3981,-9.0
451.4981,-7.3
451.5981,-6.83
451.6981,-7.02
451.7981,-7.49
451.8981,-8.62
451.9981,-9.56
452.0981,-12.48
452.1981,-16.43
452.2981,-17.56
452.3981,-16.81
452.4981,-15.21
452.5981,-13.14
452.6981,-12.95
452.7981,-12.85
452.8981,-14.36
452.9981,-16.05
453.0981,-16.24
453.1981,-16.05
453.2981,-15.68
453.3981,-16.15
453.4981,-17.94
453.5981,-21.8
453.6981,-40.34
453.7981,-21.98
453.8981,-15.3
453.9981,-10.6
454.0981,-8.34
454.1981,-7.02
454.2981,-6.36
454.3981,-5.89
454.4981,-6.08
454.5981,-5.42
454.6981,-9.09
454.7981,-9.94
454.8981,-14.17
454.9981,-18.88
455.0981,-23.87
455.1981,-26.6
455.2981,-22.08
455.3981,-17.37
455.4981,-13.8
455.5981,-12.2
455.6981,-11.16
455.7981,-9.56
455.8981,-9.0
455.9981,-9.18
456.0981,-9.0
456.1981,-8.9
456.2981,-10.97
456.3981,-13.61
456.4981,-15.21
456.5981,-15.77
456.6981,-13.51
456.7981,-11.73
456.8981,-9.65
456.9981,-8.62
457.0981,-8.43
457.1981,-8.9
457.2981,-10.78
457.3981,-13.23
457.4981,-17.84
457.5981,-29.33
457.6981,-23.87
457.7981,-16.43
457.8981,-14.64
457.9981,-11.82
458.0981,-12.01
458.1981,-12.95
458.2981,-13.61
458.3981,-16.15
458.4981,-15.3
458.5981,-14.55
458.6981,-14.17
458.7981,-14.55
458.8981,-14.45
458.9981,-16.15
459.0981,-16.53
459.1981,-14.74
459.2981,-11.44
459.3981,-8.24
459.4981,-5.89
459.5981,-5.42
459.6981,-4.48
459.7981,-4.01
459.8981,-4.2
459.9981,-5.7
460.0981,-6.36
460.1981,-10.03
460.2981,-12.76
460.3981,-18.22
460.4981,-28.38
460.5981,-29.61
460.6981,-22.64
460.7981,-22.74
460.8981,-23.11
460.9981,-24.81
461.0981,-26.97
461.1981,-24.43
461.2981,-18.69
461.3981,-13.8
461.4981,-11.25
461.5981,-10.78
461.6981,-11.73
461.7981,-14.45
461.8981,-18.41
461.9981,-20.29
462.0981,-14.64
462.1981,-11.16
462.2981,-8.53
462.3981,-6.83
462.4981,-6.55
462.5981,-7.21
462.6981,-7.68
462.7981,-9.94
462.8981,-13.33
462.9981,-17.94
463.0981,-17.75
463.1981,-13.98
463.2981,-10.41
463.3981,-10.13
463.4981,-9.0
463.5981,-9.09
463.6981,-8.24
463.7981,-7.96
463.8981,-7.49
463.9981,-6.83
464.0981,-5.33
464.1981,-5.33
464.2981,-5.98
464.3981,-7.49
464.4981,-7.68
464.5981,-8.53
464.6981,-9.0
464.7981,-9.09
464.8981,-8.24
464.9981,-6.45
465.0981,-5.98
465.1981,-5.8
465.2981,-5.51
465.3981,-6.45
465.4981,-7.4
465.5981,-9.84
465.6981,-13.7
465.7981,-18.88
465.8981,-20.48
465.9981,-18.88
466.0981,-16.71
466.1981,-16.05
466.2981,-15.49
466.3981,-17.28
466.4981,-14.93
466.5981,-14.36
466.6981,-13.04
466.7981,-11.91
466.8981,-13.98
466.9981,-17.84
467.0981,-23.3
467.1981,-22.83
467.2981,-23.21
467.3981,-35.73
467.4981,-19.91
467.5981,-12.29
467.6981,-8.81
467.7981,-6.36
467.8981,-5.04
467.9981,-5.42
468.0981,-5.8
468.1981,-7.02
468.2981,-7.77
468.3981,-10.41
468.4981,-14.27
468.5981,-17.75
468.6981,-18.5
468.7981,-16.62
468.8981,-15.4
468.9981,-12.85
469.0981,-10.6
469.1981,-9.37
469.2981,-7.96
469.3981,-6.17
469.4981,-5.89
469.5981,-6.36
469.6981,-5.98
469.7981,-6.64
469.8981,-9.09
469.9981,-12.1
470.0981,-16.34
470.1981,-25.0
470.2981,-17.75
470.3981,-12.38
470.4981,-9.56
470.5981,-7.21
470.6981,-7.3
470.7981,-8.62
470.8981,-10.5
470.9981,-14.08
471.0981,-20.48
471.1981,-32.34
471.2981,-19.35
471.3981,-13.42
471.4981,-12.38
471.5981,-11.07
471.6981,-11.16
471.7981,-10.6
471.8981,-10.41
471.9981,-9.75
472.0981,-8.81
472.1981,-7.68
472.2981,-7.4
472.3981,-7.21
472.4981,-8.62
472.5981,-11.35
472.6981,-15.77
472.7981,-16.71
472.8981,-16.53
472.9981,-18.31
473.0981,-18.97
473.1981,-13.42
473.2981,-9.37
473.3981,-5.89
473.4981,-4.85
473.5981,-4.38
473.6981,-5.14
473.7981,-7.02
473.8981,-9.18
473.9981,-10.97
474.0981,-13.04
474.1981,-16.43
474.2981,-21.98
474.3981,-34.88
474.4981,-20.95
474.5981,-14.45
474.6981,-10.13
474.7981,-8.24
474.8981,-7.02
474.9981,-5.61
475.0981,-5.7
475.1981,-6.36
475.2981,-9.75
475.3981,-13.61
475.4981,-21.51
475.5981,-21.04
475.6981,-13.14
475.7981,-8.9
475.8981,-6.93
475.9981,-6.17
476.0981,-6.17
476.1981,-6.17
476.2981,-7.68
476.3981,-10.6
476.4981,-13.8
476.5981,-19.54
476.6981,-23.21
476.7981,-18.13
476.8981,-15.58
476.9981,-13.33
477.0981,-12.38
477.1981,-10.13
477.2981,-8.24
477.3981,-6.55
477.4981,-5.14
477.5981,-4.29
477.6981,-3.73
477.7981,-4.95
477.8981,-4.95
477.9981,-5.42
478.0981,-7.49
478.1981,-9.75
478.2981,-10.69
478.3981,-10.03
478.4981,-7.96
478.5981,-7.77
478.6981,-7.49
478.7981,-9.37
478.8981,-12.76
478.9981,-17.94
479.0981,-19.82
479.1981,-16.34
479.2981,-13.42
479.3981,-12.1
479.4981,-11.07
479.5981,-10.78
479.6981,-9.65
479.7981,-11.25
479.8981,-13.61
479.9981,-13.98
480.0981,-12.57
480.1981,-11.16
480.2981,-8.9
480.3981,-7.87
480.4981,-8.43
480.5981,-9.65
480.6981,-11.82
480.7981,-17.65
480.8981,-32.43
480.9981,-14.64
481.0981,-10.03
481.1981,-7.58
481.2981,-5.89
481.3981,-5.14
481.4981,-4.76
481.5981,-3.26
481.6981,-4.48
481.7981,-5.89
481.8981,-7.4
481.9981,-9.65
482.0981,-15.02
482.1981,-19.63
482.2981,-32.53
482.3981,-21.7
482.4981,-14.08
482.5981,-10.6
482.6981,-7.58
482.7981,-5.61
482.8981,-4.29
482.9981,-2.69
483.0981,-2.13
483.1981,-2.69
483.2981,-2.88
483.3981,-3.73
483.4981,-6.45
483.5981,-8.9
483.6981,-14.93
483.7981,-24.53
483.8981,-15.96
483.9981,-11.54
484.0981,-8.34
484.1981,-8.34
484.2981,-8.43
484.3981,-9.09
484.4981,-11.16
484.5981,-12.48
484.6981,-14.83
484.7981,-18.5
484.8981,-21.7
484.9981,-26.41
485.0981,-25.09
485.1981,-20.38
485.2981,-15.49
485.3981,-10.97
485.4981,-8.71
485.5981,-6.27
485.6981,-4.85
485.7981,-3.26
485.8981,-2.69
485.9981,-5.14
486.0981,-6.64
486.1981,-8.15
486.2981,-13.42
486.3981,-17.75
486.4981,-12.85
486.5981,-8.15
486.6981,-6.74
486.7981,-5.14
486.8981,-4.1
486.9981,-4.01
487.0981,-4.01
487.1981,-5.51
487.2981,-6.74
487.3981,-6.55
487.4981,-6.64
487.5981,-8.15
487.6981,-9.84
487.7981,-12.29
487.8981,-17.09
487.9981,-30.36
488.0981,-18.69
488.1981,-11.44
488.2981,-7.87
488.3981,-6.17
488.4981,-5.98
488.5981,-5.04
488.6981,-5.7
488.7981,-7.3
488.8981,-9.75
488.9981,-13.8
489.0981,-15.02
489.1981,-12.01
489.2981,-7.77
489.3981,-5.42
489.4981,-5.14
489.5981,-3.82
489.6981,-5.14
489.7981,-6.93
489.8981,-8.05
489.9981,-10.41
490.0981,-12.85
490.1981,-15.49
490.2981,-20.01
490.3981,-20.76
490.4981,-18.88
490.5981,-16.62
490.6981,-13.14
490.7981,-14.55
490.8981,-16.62
490.9981,-18.31
491.8981,-17.75
491.9981,-18.97
492.0981,-13.42
492.1981,-8.53
492.2981,-6.08
492.3981,-4.85
492.4981,-5.42
492.5981,-6.08
492.6981,-9.65
492.7981,-15.21
492.8981,-15.68
492.9981,-11.25
493.0981,-8.43
493.1981,-5.8
493.2981,-4.85
493.3981,-4.29
493.4981,-5.04
493.5981,-5.8
493.6981,-6.08
493.7981,-5.89
493.8981,-5.98
493.9981,-6.36
494.0981,-7.02
494.1981,-9.37
494.2981,-11.82
494.3981,-16.53
494.4981,-17.94
494.5981,-12.85
494.6981,-8.15
494.7981,-6.64
494.8981,-5.33
494.9981,-5.14
495.0981,-5.51
495.1981,-7.68
495.2981,-11.35
495.3981,-20.2
495.4981,-21.7
495.5981,-12.57
495.6981,-8.34
495.7981,-5.42
495.8981,-2.97
495.9981,-2.97
496.0981,-3.16
496.1981,-3.73
496.2981,-4.29
496.3981,-5.89
496.4981,-7.4
496.5981,-7.4
496.6981,-10.31
496.7981,-13.04
496.8981,-19.07
496.9981,-38.08
497.0981,-15.58
497.1981,-9.94
497.2981,-6.45
497.3981,-3.82
497.4981,-4.2
497.5981,-4.67
497.6981,-5.51
497.7981,-9.47
497.8981,-15.02
497.9981,-17.56
498.0981,-15.68
498.1981,-16.24
498.2981,-21.8
498.3981,-20.67
498.4981,-14.08
498.5981,-11.73
498.6981,-9.75
498.7981,-9.0
498.8981,-7.96
498.9981,-8.24
499.0981,-8.71
499.1981,-7.02
499.2981,-6.27
499.3981,-7.21
499.4981,-8.9
499.5981,-9.47
499.6981,-10.03
499.7981,-10.78
499.8981,-8.34
499.9981,-7.11
500.0981,-5.42
500.1981,-3.16
500.2981,-2.97
500.3981,-1.84
500.4981,-2.88
500.5981,-4.85
500.6981,-7.77
500.7981,-12.48
500.8981,-20.76
500.9981,-15.68
501.0981,-10.03
501.1981,-7.4
501.2981,-5.98
501.3981,-4.76
501.4981,-4.1
501.5981,-2.97
501.6981,-4.01
501.7981,-4.85
501.8981,-4.85
501.9981,-5.04
502.0981,-5.8
502.1981,-7.49
502.2981,-11.63
502.3981,-16.71
502.4981,-32.53
502.5981,-14.27
502.6981,-8.71
502.7981,-6.27
502.8981,-4.48
502.9981,-3.63
503.0981,-3.16
503.1981,-3.73
503.2981,-4.48
503.3981,-6.17
503.4981,-10.13
503.5981,-16.43
503.6981,-17.56
503.7981,-17.65
503.8981,-19.91
503.9981,-17.0
504.0981,-12.38
504.1981,-9.37
504.2981,-8.43
504.3981,-6.55
504.4981,-6.83
504.5981,-8.24
504.6981,-9.18
504.7981,-10.97
504.8981,-13.89
504.9981,-21.23
505.0981,-22.45
505.1981,-12.1
505.2981,-7.21
505.3981,-4.2
505.4981,-2.97
505.5981,-1.37
505.6981,-1.09
505.7981,-0.9
505.8981,-0.62
505.9981,-2.22
506.0981,-3.44
506.1981,-6.74
506.2981,-11.35
506.3981,-21.61
506.4981,-20.2
506.5981,-12.48
506.6981,-9.09
506.7981,-7.87
506.8981,-6.45
506.9981,-4.85
507.0981,-4.85
507.1981,-4.85
507.2981,-3.73
507.3981,-2.69
507.4981,-4.38
507.5981,-4.01
507.6981,-6.45
507.7981,-9.47
507.8981,-15.21
507.9981,-16.15
508.0981,-9.94
508.1981,-7.21
508.2981,-5.8
508.3981,-4.67
508.4981,-4.85
508.5981,-5.14
508.6981,-6.64
508.7981,-9.0
508.8981,-14.55
508.9981,-17.75
509.0981,-10.78
509.1981,-7.4
509.2981,-5.7
509.3981,-4.48
509.4981,-4.85
509.5981,-6.45
509.6981,-7.87
509.7981,-13.42
509.8981,-16.62
509.9981,-13.89
510.0981,-9.65
510.1981,-9.0
510.2981,-9.09
510.3981,-10.78
510.4981,-17.47
510.5981,-24.15
510.6981,-12.85
510.7981,-6.83
510.8981,-5.14
510.9981,-3.44
511.0981,-1.94
511.1981,-2.22
511.2981,-2.97
511.3981,-3.16
511.4981,-4.2
511.5981,-6.83
511.6981,-10.22
511.7981,-10.88
511.8981,-10.03
511.9981,-9.65
512.0981,-9.18
512.1981,-6.83
512.2981,-7.21
512.3981,-7.3
512.4981,-6.45
512.5981,-5.61
512.6981,-5.23
512.7981,-5.98
512.8981,-5.61
512.9981,-7.11
513.0981,-9.37
513.1981,-11.44
513.2981,-11.35
513.3981,-7.49
513.4981,-4.85
513.5981,-3.26
513.6981,-2.5
513.7981,-2.22
513.8981,-1.47
513.9981,-2.31
514.0981,-3.44
514.1981,-6.45
514.2981,-10.31
514.3981,-19.73
514.4981,-19.25
514.5981,-11.73
514.6981,-7.87
514.7981,-5.61
514.8981,-4.76
514.9981,-3.07
515.0981,-2.41
515.1981,-1.94
515.2981,-1.56
515.3981,-1.56
515.4981,-2.6
515.5981,-6.08
515.6981,-10.03
515.7981,-17.18
515.8981,-22.83
515.9981,-29.04
516.0981,-20.38
516.1981,-10.6
516.2981,-5.33
516.3981,-2.97
516.4981,-1.09
516.5981,-1.75
516.6981,-1.66
516.7981,-2.88
516.8981,-3.91
516.9981,-6.83
517.0981,-7.77
517.1981,-7.49
517.2981,-7.11
517.3981,-5.7
517.4981,-6.36
517.5981,-4.67
517.6981,-5.61
517.7981,-6.93
517.8981,-5.89
517.9981,-5.04
518.0981,-4.76
518.1981,-5.04
518.2981,-5.42
518.3981,-7.02
518.4981,-9.94
518.5981,-14.27
518.6981,-12.29
518.7981,-7.96
518.8981,-3.73
518.9981,-1.75
519.0981,-0.71
519.1981,0.13
519.2981,0.13
519.3981,0.42
519.4981,-0.9
519.5981,-2.5
519.6981,-4.85
519.7981,-8.15
519.8981,-12.01
519.9981,-14.93
520.0981,-12.76
520.1981,-10.31
520.2981,-8.05
520.3981,-7.02
520.4981,-5.42
520.5981,-4.48
520.6981,-3.44
520.7981,-2.78
520.8981,-2.69
520.9981,-2.6
521.0981,-3.63
521.1981,-5.04
521.2981,-8.05
521.3981,-12.67
521.4981,-12.48
521.5981,-12.01
521.6981,-12.67
521.7981,-15.77
521.8981,-14.74
521.9981,-9.09
522.0981,-6.93
522.1981,-6.83
522.2981,-8.71
522.3981,-11.25
522.4981,-13.14
522.5981,-10.97
522.6981,-7.4
522.7981,-5.42
522.8981,-3.07
522.9981,-3.44
523.0981,-2.88
523.1981,-2.22
523.2981,-1.18
523.3981,-0.81
523.4981,-1.94
523.5981,-1.66
523.6981,-2.6
523.7981,-3.44
523.8981,-7.58
523.9981,-12.76
524.0981,-21.7
524.1981,-11.25
524.2981,-4.48
524.3981,-2.41
524.4981,-1.18
524.5981,-0.53
524.6981,-0.53
524.7981,-0.06
524.8981,-0.43
524.9981,-2.31
525.0981,-3.82
525.1981,-5.33
525.2981,-5.33
525.3981,-6.93
525.4981,-7.58
525.5981,-7.4
525.6981,-7.02
525.7981,-6.83
525.8981,-5.14
525.9981,-4.76
526.0981,-3.07
526.1981,-2.88
526.2981,-2.31
526.3981,-3.16
526.4981,-4.2
526.5981,-6.17
526.6981,-10.31
526.7981,-12.85
526.8981,-8.43
526.9981,-4.29
527.0981,-3.16
527.1981,-2.5
527.2981,-1.56
527.3981,-1.47
527.4981,-4.2
527.5981,-8.15
527.6981,-14.08
527.7981,-20.38
527.8981,-21.14
527.9981,-18.88
528.0981,-15.02
528.1981,-11.07
528.2981,-7.77
528.3981,-5.23
528.4981,-3.54
528.5981,-2.6
528.6981,-1.28
528.7981,-0.81
528.8981,0.23
528.9981,0.7
529.0981,0.04
529.1981,-0.43
529.2981,-2.13
529.3981,-4.85
529.4981,-9.47
529.5981,-17.09
529.6981,-12.76
529.7981,-7.68
529.8981,-4.76
529.9981,-3.07
530.0981,-1.94
530.1981,-2.31
530.2981,-3.91
530.3981,-5.7
530.4981,-6.83
530.5981,-7.02
530.6981,-6.83
530.7981,-5.33
530.8981,-4.85
530.9981,-3.63
531.0981,-3.73
531.1981,-3.26
531.2981,-2.97
531.3981,-3.82
531.4981,-3.26
531.5981,-2.5
531.6981,-3.16
531.7981,-2.97
531.8981,-5.23
531.9981,-8.53
532.0981,-14.74
532.1981,-13.7
532.2981,-6.93
532.3981,-4.38
532.4981,-2.13
532.5981,-0.71
532.6981,0.32
532.7981,0.42
532.8981,0.13
532.9981,-0.06
533.0981,-0.62
533.1981,-3.35
533.2981,-6.36
533.3981,-10.13
533.4981,-17.0
533.5981,-22.17
533.6981,-23.3
533.7981,-21.7
533.8981,-14.36
533.9981,-9.65
534.0981,-4.38
534.1981,-2.78
534.2981,-0.06
534.3981,0.04
534.4981,-0.06
534.5981,-0.81
534.6981,-3.73
534.7981,-5.89
534.8981,-10.5
534.9981,-10.03
535.0981,-8.15
535.1981,-4.95
535.2981,-2.97
535.3981,-1.75
535.4981,-0.9
535.5981,-0.71
535.6981,-3.16
535.7981,-4.95
535.8981,-5.14
535.9981,-6.55
536.0981,-8.9
536.1981,-9.47
536.2981,-7.87
536.3981,-5.98
536.4981,-5.7
536.5981,-3.16
536.6981,-2.22
536.7981,-0.71
536.8981,-0.34
536.9981,0.13
537.0981,-0.34
537.1981,-0.9
537.2981,-2.41
537.3981,-4.1
537.4981,-9.47
537.5981,-21.14
537.6981,-14.27
537.7981,-7.4
537.8981,-4.1
537.9981,-1.56
538.0981,-0.34
538.1981,-0.24
538.2981,-0.06
538.3981,1.07
538.4981,-1.37
538.5981,-2.88
538.6981,-3.54
538.7981,-4.38
538.8981,-4.57
538.9981,-6.08
539.0981,-7.77
539.1981,-9.28
539.2981,-10.69
539.3981,-9.94
539.4981,-9.75
539.5981,-11.73
539.6981,-14.74
539.7981,-14.74
539.8981,-9.94
539.9981,-8.81
540.0981,-8.53
540.1981,-10.41
540.2981,-11.44
540.3981,-7.4
540.4981,-3.91
540.5981,-1.47
540.6981,-0.53
540.7981,-0.24
540.8981,-0.24
540.9981,-0.24
541.0981,-1.28
541.1981,-3.26
541.2981,-4.48
541.3981,-6.93
541.4981,-8.53
541.5981,-8.71
541.6981,-9.47
541.7981,-8.62
541.8981,-6.93
541.9981,-3.63
542.0981,-2.13
542.1981,-1.75
542.2981,-0.15
542.3981,0.7
542.4981,1.54
542.5981,0.23
542.6981,0.32
542.7981,-2.97
542.8981,-6.55
542.9981,-13.8
543.0981,-18.22
543.1981,-10.03
543.2981,-4.85
543.3981,-2.78
543.4981,-1.47
543.5981,-2.13
543.6981,-2.22
543.7981,-2.88
543.8981,-3.44
543.9981,-4.95
544.0981,-5.61
544.1981,-5.51
544.2981,-4.48
544.3981,-4.67
544.4981,-4.67
544.5981,-3.54
544.6981,-4.01
544.7981,-1.56
544.8981,-0.81
544.9981,0.7
545.0981,0.42
545.1981,-0.43
545.2981,-1.84
545.3981,-5.04
545.4981,-10.31
545.5981,-19.25
545.6981,-44.85
545.7981,-22.27
545.8981,-12.2
545.9981,-5.7
546.0981,-2.13
546.1981,-0.06
546.2981,0.89
546.3981,1.36
546.4981,0.51
546.5981,-0.34
546.6981,-0.71
546.7981,-2.13
546.8981,-3.73
546.9981,-5.23
547.0981,-8.34
547.1981,-13.23
547.2981,-15.49
547.3981,-9.18
547.4981,-4.95
547.5981,-2.69
547.6981,0.04
547.7981,0.51
547.8981,0.79
547.9981,0.89
548.0981,-0.43
548.1981,-2.13
548.2981,-3.63
548.3981,-6.64
548.4981,-7.58
548.5981,-6.17
548.6981,-4.2
548.7981,-3.26
548.8981,-2.31
548.9981,-2.6
549.0981,-3.44
549.1981,-4.38
549.2981,-4.57
549.3981,-6.93
549.4981,-7.3
549.5981,-7.21
549.6981,-7.21
549.7981,-6.64
549.8981,-5.04
549.9981,-4.01
550.0981,-2.78
550.1981,-1.56
550.2981,-0.62
550.3981,0.23
550.4981,1.36
550.5981,0.13
550.6981,0.51
550.7981,-0.34
550.8981,-3.73
550.9981,-7.87
551.0981,-16.53
551.1981,-14.83
551.2981,-8.62
551.3981,-7.3
551.4981,-8.24
551.5981,-11.16
551.6981,-12.85
551.7981,-9.18
551.8981,-6.27
551.9981,-3.73
552.0981,-2.6
552.1981,-2.69
552.2981,-3.16
552.3981,-4.57
552.4981,-7.21
552.5981,-8.34
552.6981,-9.18
552.7981,-7.58
552.8981,-5.8
552.9981,-3.91
553.0981,-1.56
553.1981,0.32
553.2981,0.23
553.3981,-0.9
553.4981,-2.41
553.5981,-5.23
553.6981,-7.11
553.7981,-9.09
553.8981,-6.83
553.9981,-3.73
554.0981,-1.66
554.1981,-0.71
554.2981,0.79
554.3981,0.98
554.4981,-0.24
554.5981,-0.34
554.6981,-0.81
554.7981,-1.75
554.8981,-3.07
554.9981,-5.42
555.0981,-8.15
555.1981,-12.01
555.2981,-13.7
555.3981,-10.22
555.4981,-5.7
555.5981,-2.69
555.6981,0.23
555.7981,1.73
555.8981,0.89
555.9981,1.26
556.0981,2.11
556.1981,0.7
556.2981,-2.13
556.3981,-4.95
556.4981,-8.43
556.5981,-14.74
556.6981,-10.13
556.7981,-5.14
556.8981,-4.01
556.9981,-2.13
557.0981,-1.66
557.1981,-3.63
557.2981,-4.38
557.3981,-5.98
557.4981,-10.22
557.5981,-14.93
557.6981,-15.49
557.7981,-10.97
557.8981,-9.18
557.9981,-8.24
558.0981,-7.49
558.1981,-6.27
558.2981,-4.85
558.3981,-2.22
558.4981,-1.28
558.5981,0.32
558.6981,-0.71
558.7981,-0.34
558.8981,-2.41
558.9981,-4.67
559.0981,-8.81
559.1981,-15.11
559.2981,-9.65
559.3981,-5.33
559.4981,-1.94
559.5981,-1.0
559.6981,-0.15
559.7981,0.89
559.8981,1.07
559.9981,-0.24
560.0981,-0.53
560.1981,-0.62
560.2981,-0.24
560.3981,-2.41
560.4981,-2.88
560.5981,-4.85
560.6981,-6.36
560.7981,-9.18
560.8981,-8.43
560.9981,-4.95
561.0981,-2.22
561.1981,-1.84
561.2981,0.79
561.3981,0.13
561.4981,-0.43
561.5981,-1.84
561.6981,-2.88
561.7981,-5.61
561.8981,-7.49
561.9981,-6.83
562.0981,-4.57
562.1981,-2.78
562.2981,-1.47
562.3981,-0.9
562.4981,-1.28
562.5981,-1.94
562.6981,-1.18
562.7981,-1.66
562.8981,-3.91
562.9981,-4.85
563.0981,-6.74
563.1981,-8.43
563.2981,-11.16
563.3981,-13.89
563.4981,-15.02
563.5981,-16.71
563.6981,-11.91
563.7981,-6.17
563.8981,-2.13
563.9981,0.6
564.0981,2.11
564.1981,1.73
564.2981,0.6
564.3981,-0.62
564.4981,-4.2
564.5981,-9.56
564.6981,-17.37
564.7981,-11.73
564.8981,-6.36
564.9981,-3.63
565.0981,-1.94
565.1981,-1.37
565.2981,0.13
565.3981,-0.53
565.4981,-0.34
565.5981,0.42
565.6981,0.42
565.7981,-0.62
565.8981,-1.66
565.9981,-3.26
566.0981,-5.51
566.1981,-8.53
566.2981,-8.24
566.3981,-4.29
566.4981,-1.84
566.5981,-0.15
566.6981,-0.34
566.7981,-0.34
566.8981,-0.43
566.9981,-1.47
567.0981,-3.07
567.1981,-5.42
567.2981,-7.68
567.3981,-6.83
567.4981,-4.01
567.5981,-2.13
567.6981,-1.09
567.7981,-1.28
567.8981,-0.81
567.9981,-0.53
568.0981,-0.71
568.1981,-2.31
568.2981,-1.94
568.3981,-2.22
568.4981,-4.2
568.5981,-5.33
568.6981,-7.77
568.7981,-12.57
568.8981,-10.5
568.9981,-5.89
569.0981,-3.26
569.1981,-2.5
569.2981,-2.41
569.3981,-4.29
569.4981,-8.62
569.5981,-12.38
569.6981,-8.9
569.7981,-7.4
569.8981,-6.55
569.9981,-7.11
570.0981,-8.43
570.1981,-7.21
570.2981,-4.85
570.3981,-4.01
570.4981,-3.54
570.5981,-3.35
570.6981,-3.26
570.7981,-2.69
570.8981,-1.94
570.9981,-1.18
571.0981,-1.47
571.1981,-2.22
571.2981,-1.94
571.3981,-3.26
571.4981,-5.23
571.5981,-7.02
571.6981,-4.38
571.7981,-2.88
571.8981,-1.47
571.9981,0.98
572.0981,0.32
572.1981,0.23
572.2981,0.04
572.3981,-1.37
572.4981,-4.38
572.5981,-8.15
572.6981,-13.7
572.7981,-11.16
572.8981,-6.08
572.9981,-3.07
573.0981,-1.56
573.1981,-1.18
573.2981,-0.15
573.3981,0.23
573.4981,0.13
573.5981,0.32
573.6981,-0.53
573.7981,-1.09
573.8981,-1.56
573.9981,-2.31
574.0981,-4.38
574.1981,-9.47
574.2981,-14.64
574.3981,-9.47
574.4981,-5.04
574.5981,-1.47
574.6981,0.23
574.7981,-0.06
574.8981,0.13
574.9981,0.23
575.0981,-2.13
575.1981,-4.95
575.2981,-8.53
575.3981,-13.61
575.4981,-18.97
575.5981,-17.84
575.6981,-11.35
575.7981,-7.49
575.8981,-4.48
575.9981,-2.97
576.0981,-1.18
576.1981,-0.9
576.2981,-1.0
576.3981,-0.43
576.4981,-1.47
576.5981,-2.69
576.6981,-4.95
576.7981,-6.64
576.8981,-10.88
576.9981,-10.31
577.0981,-6.17
577.1981,-2.6
577.2981,0.23
577.3981,1.36
577.4981,1.92
577.5981,1.73
577.6981,2.39
577.7981,1.36
577.8981,-1.37
577.9981,-3.26
578.0981,-6.93
578.1981,-11.07
578.2981,-10.69
578.3981,-8.62
578.4981,-6.64
578.5981,-3.91
578.6981,-3.16
578.7981,-2.31
578.8981,-1.09
578.9981,-0.15
579.0981,-1.09
579.1981,0.23
579.2981,0.79
579.3981,-0.34
579.4981,-2.69
579.5981,-4.1
579.6981,-6.64
579.7981,-6.55
579.8981,-5.98
579.9981,-4.57
580.0981,-2.03
580.1981,-1.56
580.2981,-1.09
580.3981,-2.31
580.4981,-3.63
580.5981,-6.93
580.6981,-8.43
580.7981,-9.84
580.8981,-7.11
580.9981,-4.48
581.0981,-3.26
581.1981,-4.38
581.2981,-5.98
581.3981,-8.81
581.4981,-13.7
581.5981,-11.82
581.6981,-7.58
581.7981,-4.57
581.8981,-3.26
581.9981,-3.54
582.0981,-5.04
582.1981,-8.81
582.2981,-16.62
582.3981,-11.54
582.4981,-5.61
582.5981,-2.31
582.6981,-0.81
582.7981,0.7
582.8981,2.3
582.9981,2.67
583.0981,1.64
583.1981,-0.06
583.2981,-0.43
583.3981,-1.28
583.4981,-4.67
583.5981,-6.55
583.6981,-8.05
583.7981,-7.68
583.8981,-6.27
583.9981,-5.89
584.0981,-4.57
584.1981,-2.97
584.2981,-1.94
584.3981,-1.75
584.4981,-1.47
584.5981,-1.66
584.6981,-2.41
584.7981,-4.48
584.8981,-5.04
584.9981,-8.71
585.0981,-8.24
585.1981,-4.67
585.2981,-2.31
585.3981,-0.62
585.4981,0.7
585.5981,1.54
585.6981,0.89
585.7981,0.13
585.8981,-0.9
585.9981,-3.16
586.0981,-5.89
586.1981,-9.65
586.2981,-10.88
586.3981,-8.9
586.4981,-5.7
586.5981,-4.2
586.6981,-2.41
586.7981,-2.41
586.8981,-0.62
586.9981,-0.81
587.0981,-1.28
587.1981,-2.5
587.2981,-5.8
587.3981,-10.6
587.4981,-15.49
587.5981,-13.8
587.6981,-14.36
587.7981,-19.63
587.8981,-14.17
587.9981,-6.83
588.0981,-3.54
588.1981,-1.66
588.2981,-0.34
588.3981,-0.62
588.4981,-0.43
588.5981,-1.37
588.6981,-2.13
588.7981,-3.35
588.8981,-3.54
588.9981,-3.16
589.0981,-3.82
589.1981,-4.48
589.2981,-2.97
589.3981,-4.57
589.4981,-4.57
589.5981,-3.54
589.6981,-2.41
589.7981,-1.84
589.8981,-1.84
589.9981,-1.94
590.0981,-2.41
590.1981,-4.85
590.2981,-8.34
590.3981,-12.1
590.4981,-9.09
590.5981,-5.04
590.6981,-1.56
590.7981,-0.06
590.8981,0.98
590.9981,1.36
591.0981,0.6
591.1981,1.07
591.2981,-0.71
591.3981,-1.66
591.4981,-5.14
591.5981,-8.81
591.6981,-11.82
591.7981,-10.69
591.8981,-8.15
591.9981,-6.36
592.0981,-4.1
592.1981,-2.6
592.2981,-2.03
592.3981,-1.84
592.4981,-0.81
592.5981,-0.24
592.6981,-1.18
592.7981,-0.9
592.8981,-2.22
592.9981,-5.04
593.0981,-9.47
593.1981,-14.45
593.2981,-15.49
593.3981,-16.24
593.4981,-14.83
593.5981,-9.09
593.6981,-5.61
593.7981,-2.69
593.8981,-3.07
593.9981,-2.88
594.0981,-5.51
594.1981,-7.58
594.2981,-10.03
594.3981,-8.9
594.4981,-7.21
594.5981,-4.1
594.6981,-2.78
594.7981,-1.84
594.8981,-1.37
594.9981,0.42
595.0981,0.51
595.1981,0.89
595.2981,0.42
595.3981,-0.15
595.4981,-0.71
595.5981,-2.03
595.6981,-5.33
595.7981,-12.76
595.8981,-26.22
595.9981,-9.0
596.0981,-4.67
596.1981,-1.66
596.2981,-0.53
596.3981,0.32
596.4981,0.23
596.5981,-0.53
596.6981,-0.34
596.7981,-2.03
596.8981,-2.88
596.9981,-3.35
597.0981,-4.67
597.1981,-5.61
597.2981,-7.68
597.3981,-9.37
597.4981,-9.56
597.5981,-6.83
597.6981,-4.2
597.7981,-2.5
597.8981,-2.22
597.9981,-1.28
598.0981,-2.41
598.1981,-2.31
598.2981,-3.54
598.3981,-5.51
598.4981,-7.21
598.5981,-6.74
598.6981,-4.29
598.7981,-2.69
598.8981,-0.81
598.9981,-0.62
599.0981,-1.84
599.1981,-4.38
599.2981,-8.43
599.3981,-15.3
599.4981,-15.58
599.5981,-15.4
599.6981,-14.83
599.7981,-13.98
599.8981,-11.16
599.9981,-7.02
600.0981,-5.42
600.1981,-4.76
600.2981,-3.44
600.3981,-1.47
600.4981,-0.71
600.5981,-0.81
600.6981,-0.24
600.7981,-1.09
600.8981,-1.66
600.9981,-3.07
601.0981,-6.36
601.1981,-11.82
601.2981,-17.84
601.3981,-11.25
601.4981,-6.74
601.5981,-3.26
601.6981,-1.28
601.7981,-1.56
601.8981,-1.37
601.9981,-2.13
602.0981,-2.78
602.1981,-3.26
602.2981,-4.57
602.3981,-5.51
602.4981,-5.04
602.5981,-5.14
602.6981,-4.67
602.7981,-3.82
602.8981,-3.91
602.9981,-2.5
603.0981,-2.6
603.1981,-2.41
603.2981,-1.28
603.3981,-1.09
603.4981,-3.16
603.5981,-4.2
603.6981,-7.11
603.7981,-11.91
603.8981,-16.15
603.9981,-9.09
604.0981,-4.29
604.1981,-1.84
604.2981,0.04
604.3981,0.89
604.4981,0.79
604.5981,0.89
604.6981,0.89
604.7981,0.32
604.8981,-2.03
604.9981,-4.85
605.0981,-7.58
605.1981,-14.17
605.2981,-20.85
605.3981,-27.16
605.4981,-20.85
605.5981,-12.76
605.6981,-7.3
605.7981,-3.91
605.8981,-2.13
605.9981,-0.06
606.0981,1.64
606.1981,0.89
606.2981,-0.81
606.3981,-3.07
606.4981,-4.67
606.5981,-7.77
606.6981,-11.25
606.7981,-9.37
606.8981,-6.83
606.9981,-4.29
607.0981,-2.13
607.1981,-2.13
607.2981,-2.13
607.3981,-3.73
607.4981,-4.85
607.5981,-5.33
607.6981,-5.8
607.7981,-5.23
607.8981,-5.23
607.9981,-5.51
608.0981,-4.38
608.1981,-4.67
608.2981,-3.35
608.3981,-2.5
608.4981,-1.28
608.5981,-1.28
608.6981,0.23
608.7981,0.13
608.8981,-1.18
608.9981,-1.84
609.0981,-4.85
609.1981,-9.37
609.2981,-18.69
609.3981,-14.45
609.4981,-7.58
609.5981,-4.48
609.6981,-2.03
609.7981,-0.53
609.8981,-0.15
609.9981,0.13
610.0981,-0.71
610.1981,-1.94
610.2981,-2.41
610.3981,-3.63
610.4981,-3.82
610.5981,-4.67
610.6981,-5.04
610.7981,-6.83
610.8981,-8.24
610.9981,-8.53
611.0981,-9.75
611.1981,-12.1
611.2981,-14.74
611.3981,-15.21
611.4981,-10.31
611.5981,-7.11
611.6981,-4.95
611.7981,-6.55
611.8981,-7.96
611.9981,-10.41
612.0981,-7.4
612.1981,-5.04
612.2981,-2.78
612.3981,-1.37
612.4981,0.6
612.5981,-0.15
612.6981,-0.43
612.7981,-2.22
612.8981,-4.29
612.9981,-5.51
613.0981,-8.05
613.1981,-11.44
613.2981,-13.61
613.3981,-10.78
613.4981,-7.96
613.5981,-5.61
613.6981,-2.97
613.7981,-1.47
613.8981,-0.43
613.9981,1.36
614.0981,1.92
614.1981,1.45
614.2981,1.54
614.3981,0.23
614.4981,-1.37
614.5981,-4.1
614.6981,-7.96
614.7981,-14.08
614.8981,-12.01
614.9981,-7.87
615.0981,-4.95
615.1981,-3.07
615.2981,-2.22
615.3981,-2.13
615.4981,-1.75
615.5981,-2.22
615.6981,-2.41
615.7981,-2.78
615.8981,-3.54
615.9981,-4.38
616.0981,-4.76
616.1981,-5.89
616.2981,-6.74
616.3981,-5.23
616.4981,-4.29
616.5981,-3.63
616.6981,-2.97
616.7981,-1.66
616.8981,-3.35
616.9981,-4.76
617.0981,-8.62
617.1981,-14.83
617.2981,-24.24
617.3981,-24.71
617.4981,-15.87
617.5981,-8.24
617.6981,-4.85
617.7981,-1.84
617.8981,-0.53
617.9981,0.42
618.0981,-0.34
618.1981,-1.56
618.2981,-1.18
618.3981,-2.31
618.4981,-3.44
618.5981,-4.57
618.6981,-7.4
618.7981,-9.47
618.8981,-12.95
618.9981,-13.14
619.0981,-8.9
619.1981,-5.98
619.2981,-2.31
619.3981,-1.28
619.4981,-0.81
619.5981,0.51
619.6981,-0.71
619.7981,-1.09
619.8981,-2.88
619.9981,-5.33
620.0980999999999,-6.74
620.1981000000001,-7.87
620.2981,-5.61
620.3981,-3.35
620.4981,-2.31
620.5980999999999,-2.6
620.6981000000001,-2.31
620.7981,-2.6
620.8981,-3.16
620.9981,-5.7
621.0980999999999,-6.55
621.1981000000001,-6.36
621.2981,-5.89
621.3981,-6.08
621.4981,-5.89
621.5980999999999,-4.76
621.6981000000001,-4.76
621.7981,-3.73
621.8981,-1.37
621.9981,-1.18
622.0980999999999,-0.62
622.1981000000001,-0.34
622.2981,-0.9
622.3981,-1.37
622.4981,-3.82
622.5980999999999,-5.98
622.6981000000001,-12.2
622.7981,-25.84
622.8981,-12.67
622.9981,-9.56
623.0980999999999,-8.9
623.1981000000001,-11.73
623.2981,-14.64
623.3981,-10.97
623.4981,-6.45
623.5980999999999,-4.38
623.6981000000001,-2.97
623.7981,-2.41
623.8981,-1.75
623.9981,-3.26
624.0980999999999,-4.85
624.1981000000001,-5.61
624.2981,-7.49
624.3981,-9.09
624.4981,-7.96
624.5980999999999,-5.51
624.6981000000001,-3.44
624.7981,-3.07
624.8981,-0.81
624.9981,-1.37
625.0980999999999,-1.84
625.1981000000001,-3.26
625.2981,-6.08
625.3981,-10.03
625.4981,-11.44
625.5980999999999,-8.34
625.6981000000001,-5.42
625.7981,-3.26
625.8981,-1.75
625.9981,-1.84
626.0980999999999,-1.37
626.1981000000001,-0.9
626.2981,-1.75
626.3981,-2.88
626.4981,-3.16
626.5980999999999,-3.91
626.6981000000001,-5.89
626.7981,-8.15
626.8981,-10.31
626.9981,-10.88
627.0980999999999,-8.43
627.1981000000001,-5.8
627.2981,-2.69
627.3981,0.6
627.4981,0.51
627.5980999999999,0.89
627.6981000000001,0.98
627.7981,0.13
627.8981,-1.37
627.9981,-1.28
628.0980999999999,-4.48
628.1981000000001,-8.43
628.2981,-10.13
628.3981,-8.9
628.4981,-6.55
628.5980999999999,-6.36
628.6981000000001,-5.8
628.7981,-5.8
628.8981,-6.83
628.9981,-9.37
629.0980999999999,-11.73
629.1981000000001,-16.34
629.2981,-18.22
629.3981,-13.42
629.4981,-9.75
629.5980999999999,-8.34
629.6981000000001,-6.74
629.7981,-5.51
629.8981,-4.38
629.9981,-3.35
630.0980999999999,-2.5
630.1981000000001,-1.09
630.2981,-0.71
630.3981,-1.56
630.4981,-2.41
630.5980999999999,-4.95
630.6981000000001,-9.09
630.7981,-16.62
630.8981,-14.08
630.9981,-9.0
631.0980999999999,-5.61
631.1981000000001,-2.88
631.2981,-0.62
631.3981,-0.34
631.4981,-0.71
631.5980999999999,-0.71
631.6981000000001,-1.0
631.7981,-1.94
631.8981,-2.41
631.9981,-4.29
632.0980999999999,-4.85
632.1981000000001,-7.87
632.2981,-10.22
632.3981,-14.93
632.4981,-12.2
632.5980999999999,-7.3
632.6981000000001,-4.48
632.7981,-2.03
632.8981,-0.34
632.9981,-0.71
633.0980999999999,-0.34
633.1981000000001,-0.9
633.2981,-1.66
633.3981,-4.2
633.4981,-5.89
633.5980999999999,-8.24
633.6981000000001,-8.05
633.7981,-5.8
633.8981,-3.44
633.9981,-2.13
634.0980999999999,-2.6
634.1981000000001,-3.16
634.2981,-3.35
634.3981,-2.97
634.4981,-4.67
634.5980999999999,-6.83
634.6981000000001,-8.34
634.7981,-9.84
634.8981,-12.85
634.9981,-15.11
635.0980999999999,-16.53
635.1981000000001,-19.54
635.2981,-16.15
635.3981,-8.81
635.4981,-5.61
635.5980999999999,-1.66
635.6981000000001,-0.15
635.7981,0.32
635.8981,0.23
635.9981,-1.94
636.0980999999999,-4.29
636.1981000000001,-8.24
636.2981,-15.02
636.3981,-14.64
636.4981,-8.71
636.5980999999999,-6.17
636.6981000000001,-3.16
636.7981,-2.6
636.8981,-1.75
636.9981,-2.31
637.0980999999999,-2.03
637.1981000000001,-1.47
637.2981,-1.84
637.3981,-2.03
637.4981,-3.16
637.5980999999999,-4.38
637.6981000000001,-6.27
637.7981,-8.53
637.8981,-10.22
637.9981,-9.37
638.0980999999999,-6.27
638.1981000000001,-4.95
638.2981,-3.63
638.3981,-2.97
638.4981,-4.2
638.5980999999999,-4.48
638.6981000000001,-6.27
638.7981,-7.68
638.8981,-7.3
638.9981,-6.27
639.0980999999999,-4.38
639.1981000000001,-1.94
639.2981,-0.81
639.3981,-0.34
639.4981,-1.0
639.5980999999999,-1.37
639.6981000000001,-1.09
639.7981,-3.07
639.8981,-4.57
639.9981,-4.67
640.0980999999999,-6.08
640.1981000000001,-7.11
640.2981,-8.43
640.3981,-10.88
640.4981,-11.73
640.5980999999999,-8.05
640.6981000000001,-5.14
640.7981,-4.29
640.8981,-4.38
640.9981,-5.51
641.0980999999999,-9.28
641.1981000000001,-13.7
641.2981,-12.2
641.3981,-10.41
641.4981,-9.47
641.5980999999999,-12.29
641.6981000000001,-14.27
641.7981,-11.63
641.8981,-7.49
641.9981,-5.61
642.0980999999999,-4.01
642.1981000000001,-3.63
642.2981,-3.44
642.3981,-4.01
642.4981,-2.78
642.5980999999999,-3.73
642.6981000000001,-4.95
642.7981,-5.7
642.8981,-5.7
642.9981,-6.55
643.0980999999999,-6.55
643.1981000000001,-6.74
643.2981,-5.61
643.3981,-3.54
643.4981,-2.97
643.5980999999999,-1.84
643.6981000000001,-0.24
643.7981,-2.22
643.8981,-2.03
643.9981,-3.35
644.0980999999999,-6.83
644.1981000000001,-11.25
644.2981,-19.82
644.3981,-13.33
644.4981,-6.36
644.5980999999999,-4.38
644.6981000000001,-1.28
644.7981,-1.0
644.8981,-1.84
644.9981,0.32
645.0980999999999,0.32
645.1981000000001,-0.24
645.2981,0.32
645.3981,-0.9
645.4981,-1.56
645.5980999999999,-3.35
645.6981000000001,-5.98
645.7981,-8.62
645.8981,-11.54
645.9981,-10.97
646.0980999999999,-7.4
646.1981000000001,-4.85
646.2981,-3.26
646.3981,-2.03
646.4981,-1.18
646.5980999999999,-2.22
646.6981000000001,-3.63
646.7981,-5.8
646.8981,-8.71
646.9981,-12.57
647.0980999999999,-17.18
647.1981000000001,-18.69
647.2981,-13.23
647.3981,-8.24
647.4981,-6.74
647.5980999999999,-5.51
647.6981000000001,-4.85
647.7981,-5.42
647.8981,-4.95
647.9981,-5.7
648.0980999999999,-4.95
648.1981000000001,-6.08
648.2981,-6.93
648.3981,-7.11
648.4981,-6.64
648.5980999999999,-5.8
648.6981000000001,-3.26
648.7981,-2.5
648.8981,-0.81
648.9981,0.13
649.0980999999999,0.32
649.1981000000001,0.23
649.2981,0.32
649.3981,-2.22
649.4981,-3.54
649.5980999999999,-6.08
649.6981000000001,-11.07
649.7981,-14.55
649.8981,-10.97
649.9981,-7.58
650.0980999999999,-5.42
650.1981000000001,-3.91
650.2981,-2.97
650.3981,-3.26
650.4981,-3.26
650.5980999999999,-2.6
650.6981000000001,-1.94
650.7981,-1.66
650.8981,-1.94
650.9981,-3.16
651.0980999999999,-4.76
651.1981000000001,-5.51
651.2981,-6.55
651.3981,-7.3
651.4981,-4.85
651.5980999999999,-4.1
651.6981000000001,-1.47
651.7981,-2.13
651.8981,-2.78
651.9981,-3.35
652.0980999999999,-4.95
652.1981000000001,-6.64
652.2981,-8.71
652.3981,-7.49
652.4981,-4.67
652.5980999999999,-2.78
652.6981000000001,-2.22
652.7981,-2.5
652.8981,-4.85
652.9981,-7.4
653.0980999999999,-12.29
653.1981000000001,-12.67
653.2981,-7.77
653.3981,-6.64
653.4981,-6.17
653.5980999999999,-6.27
653.6981000000001,-8.34
653.7981,-14.27
653.8981,-18.13
653.9981,-11.25
654.0980999999999,-5.89
654.1981000000001,-3.16
654.2981,-0.81
654.3981,1.07
654.4981,0.98
654.5980999999999,1.54
654.6981000000001,0.89
654.7981,-0.15
654.8981,-1.09
654.9981,-4.1
655.0980999999999,-4.76
655.1981000000001,-6.36
655.2981,-7.87
655.3981,-7.4
655.4981,-6.55
655.5980999999999,-6.08
655.6981000000001,-4.1
655.7981,-4.67
655.8981,-3.82
655.9981,-3.07
656.0980999999999,-3.44
656.1981000000001,-2.6
656.2981,-3.35
656.3981,-3.35
656.4981,-3.63
656.5980999999999,-5.51
656.6981000000001,-5.04
656.7981,-3.82
656.8981,-3.91
656.9981,-2.13
657.0980999999999,-1.94
657.1981000000001,-1.37
657.2981,-1.75
657.3981,-2.97
657.4981,-5.14
657.5980999999999,-7.11
657.6981000000001,-8.81
657.7981,-9.65
657.8981,-7.68
657.9981,-4.29
658.0980999999999,-2.6
658.1981000000001,-2.97
658.2981,-0.81
658.3981,-1.28
658.4981,-1.09
658.5980999999999,0.04
658.6981000000001,-0.71
658.7981,-3.54
658.8981,-5.7
658.9981,-10.5
659.0980999999999,-16.15
659.1981000000001,-16.05
659.2981,-14.36
659.3981,-12.85
659.4981,-9.75
659.5980999999999,-5.61
659.6981000000001,-3.91
659.7981,-2.78
659.8981,-2.03
659.9981,-3.44
660.0980999999999,-2.88
660.1981000000001,-3.73
660.2981,-5.14
660.3981,-4.01
660.4981,-3.91
660.5980999999999,-2.6
660.6981000000001,-2.13
660.7981,-1.18
660.8981,-0.71
660.9981,-1.56
661.0980999999999,-0.9
661.1981000000001,-1.66
661.2981,-1.47
661.3981,-2.88
661.4981,-2.88
661.5980999999999,-3.82
661.6981000000001,-4.57
661.7981,-7.02
661.8981,-8.53
661.9981,-7.02
662.0980999999999,-4.2
662.1981000000001,-1.84
662.2981,0.23
662.3981,0.42
662.4981,2.11
662.5980999999999,1.36
662.6981000000001,1.26
662.7981,0.7
662.8981,-1.47
662.9981,-3.07
663.0980999999999,-6.36
663.1981000000001,-9.56
663.2981,-11.35
663.3981,-8.24
663.4981,-5.14
663.5980999999999,-4.01
663.6981000000001,-2.97
663.7981,-1.94
663.8981,-2.41
663.9981,-1.84
664.0980999999999,-0.06
664.1981000000001,0.6
664.2981,-0.15
664.3981,-0.9
664.4981,-0.81
664.5980999999999,-3.35
664.6981000000001,-5.51
664.7981,-7.96
664.8981,-10.6
664.9981,-13.89
665.0980999999999,-15.49
665.1981000000001,-10.41
665.2981,-6.93
665.3981,-4.57
665.4981,-4.67
665.5980999999999,-5.04
665.6981000000001,-4.95
665.7981,-5.61
665.8981,-4.01
665.9981,-3.44
666.0980999999999,-1.37
666.1981000000001,-0.71
666.2981,-0.71
666.3981,0.13
666.4981,0.04
666.5980999999999,0.98
666.6981000000001,-0.24
666.7981,-0.53
666.8981,-0.53
666.9981,-1.47
667.0980999999999,-2.6
667.1981000000001,-6.17
667.2981,-10.03
667.3981,-9.75
667.4981,-6.64
667.5980999999999,-2.22
667.6981000000001,-1.37
667.7981,0.51
667.8981,1.17
667.9981,2.11
668.0980999999999,1.64
668.1981000000001,0.6
668.2981,-0.24
668.3981,-0.53
668.4981,-1.66
668.5980999999999,-1.66
668.6981000000001,-2.13
668.7981,-1.94
668.8981,-4.01
668.9981,-3.73
669.0980999999999,-4.67
669.1981000000001,-5.89
669.2981,-5.61
669.3981,-4.01
669.4981,-3.26
669.5980999999999,-2.6
669.6981000000001,-1.84
669.7981,-2.5
669.8981,-2.22
669.9981,-1.94
670.0980999999999,-0.9
670.1981000000001,-0.62
670.2981,0.13
670.3981,0.6
670.4981,0.79
670.5980999999999,-0.06
670.6981000000001,-0.62
670.7981,-4.67
670.8981,-9.75
670.9981,-16.43
671.0980999999999,-19.73
671.1981000000001,-16.62
671.2981,-12.1
671.3981,-7.02
671.4981,-4.01
671.5980999999999,-2.78
671.6981000000001,-0.24
671.7981,0.32
671.8981,0.89
671.9981,0.98
672.0980999999999,2.39
672.1981000000001,1.26
672.2981,0.32
672.3981,-0.06
672.4981,-1.09
672.5980999999999,-2.41
672.6981000000001,-5.23
672.7981,-7.87
672.8981,-7.02
672.9981,-4.38
673.0980999999999,-2.97
673.1981000000001,-1.0
673.2981,-0.53
673.3981,0.42
673.4981,-0.15
673.5980999999999,-0.53
673.6981000000001,-1.09
673.7981,-1.18
673.8981,-1.37
673.9981,-1.37
674.0980999999999,-1.0
674.1981000000001,-0.71
674.2981,-1.18
674.3981,-0.9
674.4981,-0.71
674.5980999999999,-0.62
674.6981000000001,-0.9
674.7981,-0.9
674.8981,-1.56
674.9981,-2.22
675.0980999999999,-2.5
675.1981000000001,-3.63
675.2981,-5.61
675.3981,-6.27
675.4981,-5.33
675.5980999999999,-2.5
675.6981000000001,-0.24
675.7981,-0.34
675.8981,0.89
675.9981,2.58
676.0980999999999,2.02
676.1981000000001,2.11
676.2981,0.98
676.3981,0.04
676.4981,-1.94
676.5980999999999,-4.29
676.6981000000001,-5.8
676.7981,-9.18
676.8981,-13.61
676.9981,-16.81
677.0980999999999,-14.17
677.1981000000001,-9.28
677.2981,-5.51
677.3981,-2.31
677.4981,-0.9
677.5980999999999,1.54
677.6981000000001,1.26
677.7981,0.98
677.8981,1.17
677.9981,-0.43
678.0980999999999,-0.62
678.1981000000001,-0.9
678.2981,-1.18
678.3981,-1.75
678.4981,-1.94
678.5980999999999,-0.9
678.6981000000001,-1.66
678.7981,-2.03
678.8981,-3.26
678.9981,-4.29
679.0980999999999,-4.67
679.1981000000001,-5.04
679.2981,-3.16
679.3981,-1.75
679.4981,-0.15
679.5980999999999,0.04
679.6981000000001,1.26
679.7981,1.73
679.8981,0.79
679.9981,1.36
680.0980999999999,0.42
680.1981000000001,0.98
680.2981,1.45
680.3981,0.7
680.4981,-0.81
680.5980999999999,-2.31
680.6981000000001,-4.85
680.7981,-6.83
680.8981,-6.27
680.9981,-3.54
681.0980999999999,-1.56
681.1981000000001,-0.34
681.2981,0.7
681.3981,1.73
681.4981,1.73
681.5980999999999,1.26
681.6981000000001,0.79
681.7981,0.32
681.8981,-0.62
681.9981,-1.66
682.0980999999999,-1.0
682.1981000000001,-1.37
682.2981,-1.56
682.3981,-1.66
682.4981,-2.5
682.5980999999999,-4.38
682.6981000000001,-6.64
682.7981,-9.18
682.8981,-13.7
682.9981,-16.43
