Frequency(MHz),Power(dBmV/100kHz)_20260203_091320
107.8981,-32.38
107.9981,-33.23
108.0981,-36.62
108.1981,-39.44
108.2981,-35.21
108.3981,-30.88
108.4981,-28.34
108.5981,-27.77
108.6981,-29.28
108.7981,-34.17
108.8981,-41.8
108.9981,-32.38
109.0981,-28.71
109.1981,-27.49
109.2981,-27.77
109.3981,-28.9
109.4981,-31.07
109.5981,-35.3
109.6981,-37.09
109.7981,-32.76
109.8981,-30.69
109.9981,-30.88
110.0981,-32.29
110.1981,-33.23
110.2981,-34.08
110.3981,-37.37
110.4981,-54.41
110.5981,-38.69
110.6981,-34.17
110.7981,-33.98
110.8981,-37.18
110.9981,-39.44
111.0981,-36.62
111.1981,-33.98
111.2981,-31.54
111.3981,-29.56
111.4981,-28.9
111.5981,-30.13
111.6981,-31.54
111.7981,-29.75
111.8981,-27.87
111.9981,-27.58
112.0981,-29.09
112.1981,-31.63
112.2981,-32.1
112.3981,-29.94
112.4981,-28.81
112.5981,-28.24
112.6981,-28.43
112.7981,-30.22
112.8981,-35.11
112.9981,-43.11
113.0981,-33.89
113.1981,-30.78
113.2981,-27.96
113.3981,-30.5
113.4981,-35.3
113.5981,-44.05
113.6981,-37.18
113.7981,-29.94
113.8981,-24.67
113.9981,-19.96
114.0981,-14.22
114.1981,-13.0
114.2981,-11.3
114.3981,-7.63
114.4981,-3.02
114.5981,-0.48
114.6981,1.87
114.7981,1.59
114.8981,-0.67
114.9981,-3.21
115.0981,-6.41
115.1981,-2.45
115.2981,0.27
115.3981,1.22
115.4981,1.97
115.5981,-0.01
115.6981,-3.58
115.7981,-10.17
115.8981,-11.4
115.9981,-6.31
116.0981,-3.96
116.1981,-5.65
116.2981,-8.57
116.3981,-14.41
116.4981,-13.94
116.5981,-11.77
116.6981,-12.34
116.7981,-12.34
116.8981,-9.23
116.9981,-5.75
117.0981,-4.53
117.1981,-4.62
117.2981,-5.37
117.3981,-4.71
117.4981,-3.68
117.5981,-2.36
117.6981,-2.74
117.7981,-1.89
117.8981,-1.42
117.9981,-0.01
118.0981,0.37
118.1981,0.65
118.2981,-0.85
118.3981,-3.87
118.4981,-6.13
118.5981,-3.87
118.6981,-1.98
118.7981,-1.8
118.8981,-2.36
118.9981,-6.5
119.0981,-15.63
119.1981,-15.54
119.2981,-7.63
119.3981,-4.15
119.4981,-5.65
119.5981,-9.51
119.6981,-21.75
119.7981,-20.71
119.8981,-18.08
119.9981,-14.41
120.0981,-10.27
120.1981,-8.85
120.2981,-8.2
120.3981,-5.84
120.4981,-4.53
120.5981,-4.05
120.6981,-3.96
120.7981,-2.08
120.8981,-2.27
120.9981,-2.93
121.0981,-3.02
121.1981,-3.11
121.2981,-4.53
121.3981,-4.34
121.4981,-2.27
121.5981,-2.45
121.6981,-1.98
121.7981,-5.56
121.8981,-14.31
121.9981,-8.95
122.0981,-5.0
122.1981,-4.43
122.2981,-7.07
122.3981,-12.34
122.4981,-16.67
122.5981,-7.44
122.6981,-2.93
122.7981,-1.04
122.8981,-1.14
122.9981,-4.24
123.0981,-7.91
123.1981,-7.35
123.2981,-3.02
123.3981,-0.29
123.4981,-1.7
123.5981,-3.77
123.6981,-4.43
123.7981,-6.5
123.8981,-7.63
123.9981,-6.03
124.0981,-4.53
124.1981,-4.9
124.2981,-5.18
124.3981,-5.47
124.4981,-5.94
124.5981,-6.69
124.6981,-8.67
124.7981,-6.6
124.8981,-4.24
124.9981,-4.05
125.0981,-4.43
125.1981,-9.51
125.2981,-10.64
125.3981,-6.78
125.4981,-5.75
125.5981,-7.16
125.6981,-9.14
125.7981,-14.88
125.8981,-19.96
125.9981,-14.6
126.0981,-8.29
126.1981,-4.24
126.2981,-3.21
126.3981,-4.15
126.4981,-7.73
126.5981,-5.94
126.6981,-4.15
126.7981,-2.45
126.8981,-3.4
126.9981,-5.75
127.0981,-13.47
127.1981,-17.98
127.2981,-7.91
127.3981,-5.18
127.4981,-4.53
127.5981,-4.71
127.6981,-7.63
127.7981,-9.42
127.8981,-8.95
127.9981,-5.56
128.0981,-2.64
128.1981,-0.95
128.2981,-0.85
128.3981,-0.57
128.4981,-3.49
128.5981,-8.1
128.6981,-8.48
128.7981,-1.8
128.8981,0.65
128.9981,1.5
129.0981,0.27
129.1981,-1.51
129.2981,-4.05
129.3981,-7.44
129.4981,-4.9
129.5981,-1.8
129.6981,-1.7
129.7981,-1.98
129.8981,-5.84
129.9981,-12.43
130.0981,-12.43
130.1981,-10.45
130.2981,-12.62
130.3981,-16.1
130.4981,-12.9
130.5981,-9.7
130.6981,-7.44
130.7981,-4.62
130.8981,-2.45
130.9981,-3.21
131.0981,-4.62
131.1981,-3.49
131.2981,-1.33
131.3981,-1.7
131.4981,-3.58
131.5981,-5.28
131.6981,-7.44
131.7981,-12.34
131.8981,-17.8
131.9981,-20.62
132.0981,-22.88
132.1981,-22.22
132.2981,-21.75
132.3981,-22.13
132.4981,-23.25
132.5981,-29.28
132.6981,-33.23
132.7981,-35.3
132.8981,-31.25
132.9981,-29.09
133.0981,-29.56
133.1981,-32.85
133.2981,-40.29
133.3981,-37.56
133.4981,-33.23
133.5981,-31.63
133.6981,-31.54
133.7981,-33.04
133.8981,-35.3
133.9981,-33.14
134.0981,-29.0
134.1981,-26.64
134.2981,-25.98
134.3981,-26.55
134.4981,-26.93
134.5981,-27.02
134.6981,-27.21
134.7981,-28.15
134.8981,-28.24
134.9981,-27.3
135.0981,-26.36
135.1981,-26.36
135.2981,-27.4
135.3981,-29.37
135.4981,-31.44
135.5981,-32.76
135.6981,-31.73
135.7981,-30.5
135.8981,-30.6
135.9981,-33.7
136.0981,-44.15
136.1981,-39.91
136.2981,-33.14
136.3981,-31.91
136.4981,-33.98
136.5981,-40.76
136.6981,-38.5
136.7981,-31.44
136.8981,-28.05
136.9981,-26.74
137.0981,-26.83
137.1981,-24.57
137.2981,-25.33
137.3981,-24.38
137.4981,-22.5
137.5981,-20.53
137.6981,-17.51
137.7981,-11.87
137.8981,-12.24
137.9981,-9.33
138.0981,-7.44
138.1981,-5.47
138.2981,-5.0
138.3981,-4.24
138.4981,-5.09
138.5981,-4.53
138.6981,-4.81
138.7981,-7.82
138.8981,-13.47
138.9981,-12.53
139.0981,-9.42
139.1981,-8.29
139.2981,-8.48
139.3981,-9.7
139.4981,-9.7
139.5981,-6.22
139.6981,-4.53
139.7981,-3.77
139.8981,-3.77
139.9981,-7.16
140.0981,-5.09
140.1981,-3.21
140.2981,-1.61
140.3981,-0.85
140.4981,-2.17
140.5981,-1.98
140.6981,-5.0
140.7981,-4.9
140.8981,-2.83
140.9981,-0.38
141.0981,0.37
141.1981,-0.76
141.2981,-5.0
141.3981,-6.88
141.4981,-7.16
141.5981,-6.22
141.6981,-5.47
141.7981,-3.49
141.8981,-2.55
141.9981,-5.65
142.0981,-9.42
142.1981,-12.9
142.2981,-6.88
142.3981,-3.4
142.4981,-2.64
142.5981,-0.85
142.6981,-1.42
142.7981,-5.0
142.8981,-11.21
142.9981,-5.0
143.0981,-0.76
143.1981,-0.2
143.2981,-0.95
143.3981,-3.21
143.4981,-8.2
143.5981,-13.37
143.6981,-15.25
143.7981,-17.33
143.8981,-12.43
143.9981,-8.01
144.0981,-7.73
144.1981,-9.23
144.2981,-6.03
144.3981,-5.28
144.4981,-6.41
144.5981,-7.44
144.6981,-5.47
144.7981,-3.21
144.8981,-3.77
144.9981,-5.28
145.0981,-4.81
145.1981,-5.18
145.2981,-5.75
145.3981,-4.15
145.4981,-2.45
145.5981,-1.04
145.6981,-1.04
145.7981,-1.04
145.8981,-1.61
145.9981,-2.27
146.0981,-3.77
146.1981,-6.22
146.2981,-5.18
146.3981,-3.21
146.4981,-1.33
146.5981,-1.51
146.6981,-1.89
146.7981,-6.22
146.8981,-22.88
146.9981,-9.89
147.0981,-3.68
147.1981,-2.93
147.2981,-2.45
147.3981,-5.65
147.4981,-11.21
147.5981,-10.17
147.6981,-3.68
147.7981,-2.27
147.8981,-1.8
147.9981,-1.23
148.0981,-3.21
148.1981,-3.68
148.2981,-4.53
148.3981,-4.43
148.4981,-2.08
148.5981,-1.33
148.6981,-0.85
148.7981,-0.76
148.8981,-1.51
148.9981,-2.74
149.0981,-3.11
149.1981,-4.71
149.2981,-5.28
149.3981,-4.15
149.4981,-6.22
149.5981,-10.55
149.6981,-18.83
149.7981,-29.47
149.8981,-21.56
149.9981,-14.5
150.0981,-13.84
150.1981,-18.64
150.2981,-13.09
150.3981,-6.22
150.4981,-3.68
150.5981,-1.8
150.6981,-1.8
150.7981,-3.77
150.8981,-4.81
150.9981,-3.02
151.0981,0.27
151.1981,0.74
151.2981,0.84
151.3981,0.74
151.4981,-0.85
151.5981,-1.33
151.6981,-0.85
151.7981,-1.33
151.8981,-0.29
151.9981,-0.38
152.0981,0.09
152.1981,-1.7
152.2981,-3.02
152.3981,-5.84
152.4981,-7.07
152.5981,-8.67
152.6981,-6.22
152.7981,-5.18
152.8981,-5.75
152.9981,-11.49
153.0981,-22.88
153.1981,-9.98
153.2981,-6.31
153.3981,-3.77
153.4981,-2.55
153.5981,-5.0
153.6981,-5.47
153.7981,-3.77
153.8981,-0.76
153.9981,0.56
154.0981,0.56
154.1981,-1.33
154.2981,-1.8
154.3981,-0.85
154.4981,0.74
154.5981,1.22
154.6981,0.37
154.7981,-0.29
154.8981,-2.27
154.9981,-3.21
155.0981,-4.15
155.1981,-1.61
155.2981,-1.8
155.3981,-4.15
155.4981,-9.33
155.5981,-16.29
155.6981,-24.01
155.7981,-24.95
155.8981,-16.1
155.9981,-9.98
156.0981,-7.63
156.1981,-7.07
156.2981,-11.49
156.3981,-13.75
156.4981,-6.88
156.5981,-2.17
156.6981,0.84
156.7981,0.93
156.8981,0.27
156.9981,-2.08
157.0981,-6.22
157.1981,-3.21
157.2981,0.18
157.3981,1.31
157.4981,2.63
157.5981,1.31
157.6981,-0.1
157.7981,-2.36
157.8981,-4.71
157.9981,-3.49
158.0981,-3.21
158.1981,-2.27
158.2981,-2.55
158.3981,-2.93
158.4981,-5.0
158.5981,-7.82
158.6981,-10.36
158.7981,-11.21
158.8981,-8.1
158.9981,-5.47
159.0981,-4.43
159.1981,-4.53
159.2981,-4.62
159.3981,-7.35
159.4981,-6.41
159.5981,-4.43
159.6981,-3.21
159.7981,-2.74
159.8981,-0.85
159.9981,0.09
160.0981,1.03
160.1981,-1.8
160.2981,-3.21
160.3981,-4.05
160.4981,-3.68
160.5981,-2.74
160.6981,0.09
160.7981,0.09
160.8981,-0.48
160.9981,-3.77
161.0981,-12.62
161.1981,-10.93
161.2981,-5.37
161.3981,-5.18
161.4981,-6.78
161.5981,-11.77
161.6981,-19.49
161.7981,-25.89
161.8981,-14.31
161.9981,-6.5
162.0981,-2.45
162.1981,-1.51
162.2981,-1.61
162.3981,-1.8
162.4981,-2.93
162.5981,-5.56
162.6981,-4.9
162.7981,-2.55
162.8981,0.18
162.9981,0.56
163.0981,-0.76
163.1981,-3.21
163.2981,-5.75
163.3981,-8.95
163.4981,-5.94
163.5981,-2.45
163.6981,-0.85
163.7981,-1.89
163.8981,-5.28
163.9981,-9.7
164.0981,-9.14
164.1981,-7.07
164.2981,-6.03
164.3981,-4.9
164.4981,-3.96
164.5981,-3.4
164.6981,-2.83
164.7981,-0.85
164.8981,-1.61
164.9981,-3.87
165.0981,-4.05
165.1981,-1.33
165.2981,0.84
165.3981,1.5
165.4981,1.5
165.5981,0.74
165.6981,-1.04
165.7981,-3.02
165.8981,-3.68
165.9981,-4.15
166.0981,-2.08
166.1981,-1.8
166.2981,-1.23
166.3981,-2.27
166.4981,-5.65
166.5981,-11.11
166.6981,-14.6
166.7981,-9.04
166.8981,-4.9
166.9981,-4.43
167.0981,-5.28
167.1981,-10.17
167.2981,-13.18
167.3981,-8.38
167.4981,-7.63
167.5981,-9.98
167.6981,-12.81
167.7981,-9.51
167.8981,-6.97
167.9981,-4.9
168.0981,-1.23
168.1981,1.12
168.2981,2.25
168.3981,0.93
168.4981,-0.2
168.5981,-0.29
168.6981,-0.2
168.7981,-0.48
168.8981,-0.29
168.9981,-2.17
169.0981,-2.74
169.1981,-5.0
169.2981,-4.53
169.3981,-5.47
169.4981,-6.03
169.5981,-6.97
169.6981,-8.67
169.7981,-12.24
169.8981,-15.73
169.9981,-10.93
170.0981,-6.6
170.1981,-4.71
170.2981,-3.96
170.3981,-2.17
170.4981,-2.55
170.5981,-3.77
170.6981,-3.4
170.7981,0.56
170.8981,2.16
170.9981,2.63
171.0981,1.78
171.1981,0.84
171.2981,-0.85
171.3981,-2.17
171.4981,-0.01
171.5981,1.78
171.6981,2.16
171.7981,1.97
171.8981,0.65
171.9981,-2.83
172.0981,-5.0
172.1981,-5.56
172.2981,-5.84
172.3981,-4.43
172.4981,-3.87
172.5981,-3.11
172.6981,-6.22
172.7981,-13.0
172.8981,-17.7
172.9981,-9.04
173.0981,-5.75
173.1981,-3.11
173.2981,-4.81
173.3981,-6.22
173.4981,-10.36
173.5981,-16.1
173.6981,-14.03
173.7981,-6.97
173.8981,-4.15
173.9981,-1.14
174.0981,1.03
174.1981,2.25
174.2981,1.97
174.3981,1.59
174.4981,0.65
174.5981,-0.1
174.6981,-1.42
174.7981,-1.51
174.8981,0.09
174.9981,1.59
175.0981,0.65
175.1981,-1.04
175.2981,-7.07
175.3981,-18.45
175.4981,-6.69
175.5981,-1.89
175.6981,-1.61
175.7981,-1.89
175.8981,-5.94
175.9981,-14.41
176.0981,-10.08
176.1981,-3.49
176.2981,-0.76
176.3981,0.65
176.4981,0.74
176.5981,0.84
176.6981,-1.8
176.7981,-3.87
176.8981,-2.64
176.9981,0.37
177.0981,1.4
177.1981,2.82
177.2981,2.44
177.3981,0.65
177.4981,-1.51
177.5981,-3.4
177.6981,-4.05
177.7981,-1.61
177.8981,-0.85
177.9981,-0.57
178.0981,-2.55
178.1981,-5.65
178.2981,-8.57
178.3981,-6.6
178.4981,-4.62
178.5981,-3.68
178.6981,-3.21
178.7981,-3.11
178.8981,-2.74
178.9981,-3.68
179.0981,-4.24
179.1981,-5.84
179.2981,-5.65
179.3981,-5.65
179.4981,-8.1
179.5981,-12.9
179.6981,-11.11
179.7981,-7.91
179.8981,-6.22
179.9981,-5.18
180.0981,-3.02
180.1981,-0.85
180.2981,0.65
180.3981,0.18
180.4981,0.56
180.5981,-0.38
180.6981,-2.93
180.7981,-6.6
180.8981,-7.44
180.9981,-1.8
181.0981,-0.48
181.1981,-0.85
181.2981,-0.1
181.3981,-2.74
181.4981,-8.2
181.5981,-7.07
181.6981,-1.33
181.7981,2.16
181.8981,2.72
181.9981,1.97
182.0981,-0.85
182.1981,-3.77
182.2981,-2.27
182.3981,-0.76
182.4981,0.84
182.5981,1.03
182.6981,0.84
182.7981,-0.38
182.8981,-2.36
182.9981,-2.83
183.0981,-3.58
183.1981,-3.11
183.2981,-3.87
183.3981,-3.21
183.4981,-3.21
183.5981,-3.4
183.6981,-5.28
183.7981,-6.6
183.8981,-4.05
183.9981,-3.3
184.0981,-4.34
184.1981,-4.71
184.2981,-3.11
184.3981,-1.7
184.4981,-0.57
184.5981,-0.1
184.6981,0.65
184.7981,-0.57
184.8981,-0.85
184.9981,0.84
185.0981,1.4
185.1981,0.56
185.2981,-0.67
185.3981,-4.81
185.4981,-10.55
185.5981,-14.5
185.6981,-10.64
185.7981,-5.84
185.8981,-2.74
185.9981,-1.04
186.0981,-2.55
186.1981,-5.94
186.2981,-7.54
186.3981,-7.82
186.4981,-6.97
186.5981,-6.03
186.6981,-5.18
186.7981,-5.84
186.8981,-6.6
186.9981,-7.44
187.0981,-4.43
187.1981,-0.76
187.2981,0.46
187.3981,1.87
187.4981,1.5
187.5981,0.65
187.6981,0.27
187.7981,0.37
187.8981,1.31
187.9981,2.91
188.0981,3.0
188.1981,2.72
188.2981,2.82
188.3981,1.5
188.4981,1.87
188.5981,1.5
188.6981,0.84
188.7981,-0.29
188.8981,-2.36
188.9981,-4.05
189.0981,-2.74
189.1981,-2.83
189.2981,-3.02
189.3981,-4.34
189.4981,-11.02
189.5981,-22.88
189.6981,-7.16
189.7981,-3.49
189.8981,-2.55
189.9981,-3.02
190.0981,-4.24
190.1981,-4.62
190.2981,-2.36
190.3981,-1.42
190.4981,1.22
190.5981,3.0
190.6981,3.85
190.7981,2.63
190.8981,1.59
190.9981,-0.01
191.0981,-0.76
191.1981,-0.95
191.2981,-1.33
191.3981,-2.64
191.4981,-8.38
191.5981,-9.8
191.6981,-7.07
191.7981,-7.54
191.8981,-6.5
191.9981,-4.62
192.0981,-2.36
192.1981,-2.36
192.2981,-3.68
192.3981,-6.31
192.4981,-12.9
192.5981,-14.88
192.6981,-7.35
192.7981,-5.56
192.8981,-3.96
192.9981,-2.17
193.0981,-0.95
193.1981,-1.04
193.2981,-1.51
193.3981,-1.7
193.4981,-0.38
193.5981,0.93
193.6981,2.91
193.7981,2.53
193.8981,2.16
193.9981,2.16
194.0981,1.03
194.1981,0.93
194.2981,1.31
194.3981,1.59
194.4981,2.25
194.5981,1.31
194.6981,0.84
194.7981,-0.01
194.8981,0.27
194.9981,-3.68
195.0981,-7.16
195.1981,-7.35
195.2981,-3.77
195.3981,-3.21
195.4981,-3.11
195.5981,-5.47
195.6981,-11.96
195.7981,-8.95
195.8981,-2.55
195.9981,0.46
196.0981,1.87
196.1981,1.03
196.2981,-0.95
196.3981,-2.64
196.4981,-1.8
196.5981,0.18
196.6981,1.4
196.7981,1.69
196.8981,2.25
196.9981,1.87
197.0981,-0.85
197.1981,-2.64
197.2981,-6.13
197.3981,-8.95
197.4981,-12.53
197.5981,-10.36
197.6981,-6.03
197.7981,-4.15
197.8981,-4.24
197.9981,-6.6
198.0981,-6.88
198.1981,-2.45
198.2981,-2.08
198.3981,-2.17
198.4981,-2.93
198.5981,-4.34
198.6981,-3.87
198.7981,-1.98
198.8981,-1.98
198.9981,-1.33
199.0981,-0.76
199.1981,-0.57
199.2981,0.84
199.3981,1.78
199.4981,1.4
199.5981,0.84
199.6981,-1.7
199.7981,-1.33
199.8981,-0.67
199.9981,1.4
200.0981,1.31
200.1981,0.65
200.2981,-1.61
200.3981,-2.36
200.4981,-3.02
200.5981,-4.15
200.6981,-2.27
200.7981,-0.85
200.8981,-0.85
200.9981,-1.04
201.0981,-2.36
201.1981,-1.23
201.2981,-2.55
201.3981,-2.17
201.4981,-0.48
201.5981,0.46
201.6981,0.93
201.7981,0.46
201.8981,-0.48
201.9981,0.27
202.0981,0.09
202.1981,1.4
202.2981,1.22
202.3981,0.56
202.4981,-0.2
202.5981,-2.36
202.6981,-2.27
202.7981,-1.14
202.8981,0.18
202.9981,-1.51
203.0981,-5.28
203.1981,-9.33
203.2981,-11.21
203.3981,-14.5
203.4981,-16.2
203.5981,-12.24
203.6981,-9.04
203.7981,-7.91
203.8981,-4.9
203.9981,-0.95
204.0981,0.46
204.1981,0.74
204.2981,0.65
204.3981,1.12
204.4981,0.93
204.5981,0.74
204.6981,1.22
204.7981,2.06
204.8981,3.66
204.9981,3.0
205.0981,2.25
205.1981,1.87
205.2981,0.65
205.3981,-0.57
205.4981,-1.04
205.5981,0.56
205.6981,0.84
205.7981,0.46
205.8981,-1.42
205.9981,-5.09
206.0981,-9.8
206.1981,-8.38
206.2981,-6.03
206.3981,-4.62
206.4981,-5.37
206.5981,-5.94
206.6981,-5.47
206.7981,-3.11
206.8981,-0.85
206.9981,-1.23
207.0981,0.93
207.1981,0.18
207.2981,1.31
207.3981,2.34
207.4981,2.53
207.5981,3.19
207.6981,2.16
207.7981,2.72
207.8981,3.29
207.9981,3.1
208.0981,4.04
208.1981,2.82
208.2981,1.97
208.3981,1.59
208.4981,1.31
208.5981,-0.48
208.6981,-0.01
208.7981,-1.14
208.8981,-1.98
208.9981,-2.55
209.0981,-4.43
209.1981,-10.64
209.2981,-22.03
209.3981,-24.1
209.4981,-17.51
209.5981,-10.27
209.6981,-5.84
209.7981,-4.53
209.8981,-4.9
209.9981,-4.62
210.0981,-0.85
210.1981,2.06
210.2981,2.82
210.3981,3.38
210.4981,3.57
210.5981,2.82
210.6981,1.69
210.7981,1.78
210.8981,2.91
210.9981,3.1
211.0981,3.29
211.1981,3.47
211.2981,2.82
211.3981,1.59
211.4981,-0.29
211.5981,-1.33
211.6981,-1.42
211.7981,0.09
211.8981,-0.57
211.9981,-2.55
212.0981,-3.58
212.1981,-7.73
212.2981,-10.36
212.3981,-6.5
212.4981,-4.9
212.5981,-3.68
212.6981,-4.43
212.7981,-3.11
212.8981,-1.23
212.9981,-0.1
213.0981,1.22
213.1981,1.59
213.2981,1.03
213.3981,1.03
213.4981,1.69
213.5981,2.63
213.6981,2.44
213.7981,2.63
213.8981,1.5
213.9981,0.84
214.0981,1.12
214.1981,1.59
214.2981,1.69
214.3981,1.12
214.4981,0.74
214.5981,-1.14
214.6981,-2.74
214.7981,-3.49
214.8981,-4.05
214.9981,-3.96
215.0981,-5.84
215.1981,-8.67
215.2981,-13.09
215.3981,-19.3
215.4981,-18.17
215.5981,-11.21
215.6981,-6.22
215.7981,-1.61
215.8981,0.37
215.9981,-0.01
216.0981,-0.38
216.1981,0.37
216.2981,0.84
216.3981,2.91
216.4981,3.0
216.5981,2.72
216.6981,1.12
216.7981,0.84
216.8981,0.74
216.9981,0.46
217.0981,2.44
217.1981,1.69
217.2981,0.18
217.3981,-1.98
217.4981,-2.64
217.5981,-2.36
217.6981,-1.42
217.7981,-1.14
217.8981,-0.67
217.9981,-3.58
218.0981,-3.68
218.1981,-3.3
218.2981,-3.21
218.3981,-2.17
218.4981,-0.95
218.5981,-0.38
218.6981,-0.38
218.7981,-2.17
218.8981,-1.14
218.9981,-1.51
219.0981,0.37
219.1981,1.78
219.2981,1.97
219.3981,2.06
219.4981,0.93
219.5981,-1.23
219.6981,-0.67
219.7981,-0.01
219.8981,0.93
219.9981,0.27
220.0981,-0.85
220.1981,-2.55
220.2981,-4.34
220.3981,-4.15
220.4981,-2.45
220.5981,-1.89
220.6981,-1.33
220.7981,-1.14
220.8981,-1.8
220.9981,-1.8
221.0981,-3.77
221.1981,-5.65
221.2981,-11.02
221.3981,-13.56
221.4981,-9.51
221.5981,-4.81
221.6981,-1.7
221.7981,0.18
221.8981,0.46
221.9981,0.09
222.0981,-0.29
222.1981,0.65
222.2981,0.65
222.3981,0.46
222.4981,0.37
222.5981,0.93
222.6981,0.65
222.7981,-1.42
222.8981,-5.75
222.9981,-5.75
223.0981,-4.34
223.1981,-2.55
223.2981,-2.74
223.3981,-3.49
223.4981,-6.88
223.5981,-7.07
223.6981,-2.36
223.7981,1.4
223.8981,2.25
223.9981,1.59
224.0981,1.12
224.1981,-0.2
224.2981,0.27
224.3981,1.78
224.4981,3.0
224.5981,4.42
224.6981,4.32
224.7981,4.04
224.8981,3.76
224.9981,1.31
225.0981,-0.1
225.1981,0.65
225.2981,2.25
225.3981,0.74
225.4981,0.65
225.5981,0.27
225.6981,-1.61
225.7981,-4.81
225.8981,-6.88
225.9981,-5.37
226.0981,-4.43
226.1981,-4.71
226.2981,-5.18
226.3981,-7.35
226.4981,-5.65
226.5981,-3.68
226.6981,-0.67
226.7981,-0.2
226.8981,-1.51
226.9981,-1.61
227.0981,-1.8
227.1981,-4.24
227.2981,-9.14
227.3981,-10.74
227.4981,-6.22
227.5981,-2.83
227.6981,-0.01
227.7981,3.29
227.8981,3.85
227.9981,3.85
228.0981,2.72
228.1981,1.97
228.2981,0.27
228.3981,-0.95
228.4981,0.37
228.5981,-0.57
228.6981,-0.76
228.7981,-0.38
228.8981,-2.83
228.9981,-7.07
229.0981,-8.67
229.1981,-8.1
229.2981,-3.68
229.3981,-3.21
229.4981,-2.45
229.5981,-3.87
229.6981,-4.53
229.7981,-2.45
229.8981,-0.01
229.9981,1.97
230.0981,3.0
230.1981,3.0
230.2981,2.16
230.3981,2.63
230.4981,2.82
230.5981,3.29
230.6981,4.13
230.7981,4.13
230.8981,3.85
230.9981,3.1
231.0981,1.87
231.1981,1.4
231.2981,1.78
231.3981,1.87
231.4981,0.56
231.5981,-0.29
231.6981,-2.74
231.7981,-4.24
231.8981,-3.11
231.9981,-3.3
232.0981,-4.24
232.1981,-4.15
232.2981,-4.24
232.3981,-5.37
232.4981,-4.24
232.5981,-2.27
232.6981,0.56
232.7981,1.69
232.8981,-0.95
232.9981,-2.45
233.0981,-4.05
233.1981,-7.35
233.2981,-11.3
233.3981,-9.14
233.4981,-3.11
233.5981,-0.76
233.6981,0.65
233.7981,-0.57
233.8981,0.84
233.9981,2.25
234.0981,1.97
234.1981,3.19
234.2981,1.78
234.3981,0.09
234.4981,-2.93
234.5981,-4.81
234.6981,-3.4
234.7981,-1.98
234.8981,-2.27
234.9981,-2.36
235.0981,-2.83
235.1981,-2.08
235.2981,-1.89
235.3981,-2.93
235.4981,-1.14
235.5981,-0.2
235.6981,0.37
235.7981,1.03
235.8981,1.87
235.9981,2.16
236.0981,1.78
236.1981,1.97
236.2981,1.31
236.3981,1.4
236.4981,1.69
236.5981,2.16
236.6981,3.76
236.7981,3.19
236.8981,2.25
236.9981,0.18
237.0981,-1.04
237.1981,-2.83
237.2981,-0.57
237.3981,1.03
237.4981,1.97
237.5981,1.31
237.6981,-0.95
237.7981,-6.31
237.8981,-5.65
237.9981,-0.29
238.0981,3.19
238.1981,3.29
238.2981,1.97
238.3981,1.12
238.4981,-0.95
238.5981,-1.51
238.6981,1.12
238.7981,1.69
238.8981,1.87
238.9981,0.74
239.0981,-2.27
239.1981,-7.63
239.2981,-13.65
239.3981,-11.11
239.4981,-6.03
239.5981,-2.36
239.6981,0.09
239.7981,0.37
239.8981,-0.2
239.9981,-2.55
240.0981,-5.18
240.1981,-2.64
240.2981,-0.2
240.3981,0.74
240.4981,-0.01
240.5981,-1.33
240.6981,-0.38
240.7981,-0.29
240.8981,0.84
240.9981,0.27
241.0981,1.12
241.1981,2.53
241.2981,3.19
241.3981,2.91
241.4981,3.0
241.5981,2.63
241.6981,1.59
241.7981,1.5
241.8981,0.74
241.9981,2.72
242.0981,2.91
242.1981,2.72
242.2981,1.4
242.3981,1.12
242.4981,-1.8
242.5981,-5.65
242.6981,-4.62
242.7981,-1.61
242.8981,-0.95
242.9981,-2.27
243.0981,-3.77
243.1981,-8.01
243.2981,-8.76
243.3981,-3.4
243.4981,-0.2
243.5981,2.53
243.6981,3.38
243.7981,3.1
243.8981,0.84
243.9981,0.37
244.0981,1.12
244.1981,4.23
244.2981,5.17
244.3981,4.98
244.4981,4.89
244.5981,3.94
244.6981,1.78
244.7981,1.78
244.8981,0.46
244.9981,-1.04
245.0981,-3.87
245.1981,-8.2
245.2981,-10.74
245.3981,-8.38
245.4981,-7.16
245.5981,-6.41
245.6981,-4.53
245.7981,-4.9
245.8981,-6.6
245.9981,-5.47
246.0981,-5.37
246.1981,-5.94
246.2981,-5.75
246.3981,-3.87
246.4981,-1.23
246.5981,0.27
246.6981,1.87
246.7981,1.97
246.8981,3.94
246.9981,4.23
247.0981,3.66
247.1981,3.94
247.2981,3.38
247.3981,2.25
247.4981,2.63
247.5981,3.19
247.6981,5.26
247.7981,4.23
247.8981,4.13
247.9981,1.59
248.0981,-0.2
248.1981,-1.7
248.2981,0.27
248.3981,0.74
248.4981,-0.1
248.5981,-0.95
248.6981,-3.96
248.7981,-8.01
248.8981,-6.41
248.9981,-4.15
249.0981,-3.3
249.1981,-2.36
249.2981,-3.21
249.3981,-3.21
249.4981,-1.98
249.5981,-0.1
249.6981,0.93
249.7981,2.25
249.8981,2.82
249.9981,3.1
250.0981,3.85
250.1981,2.82
250.2981,3.38
250.3981,4.42
250.4981,3.76
250.5981,3.57
250.6981,3.0
250.7981,2.44
250.8981,0.09
250.9981,-1.61
251.0981,-5.09
251.1981,-11.58
251.2981,-13.28
251.3981,-11.4
251.4981,-9.42
251.5981,-4.81
251.6981,-2.08
251.7981,-2.17
251.8981,-4.05
251.9981,-8.01
252.0981,-6.13
252.1981,-2.55
252.2981,-0.76
252.3981,1.31
252.4981,0.74
252.5981,-0.01
252.6981,-1.51
252.7981,-1.8
252.8981,1.22
252.9981,2.16
253.0981,3.0
253.1981,4.7
253.2981,4.79
253.3981,2.82
253.4981,1.22
253.5981,0.27
253.6981,0.93
253.7981,1.5
253.8981,3.57
253.9981,3.47
254.0981,3.57
254.1981,0.27
254.2981,-4.05
254.3981,-5.56
254.4981,-4.34
254.5981,-0.95
254.6981,0.46
254.7981,-1.14
254.8981,-1.89
254.9981,-1.89
255.0981,-1.89
255.1981,-1.61
255.2981,0.27
255.3981,1.22
255.4981,1.5
255.5981,2.72
255.6981,3.19
255.7981,2.25
255.8981,0.18
255.9981,-0.67
256.0981,-0.29
256.1981,0.93
256.2981,2.25
256.3981,2.53
256.4981,1.97
256.5981,1.87
256.6981,-1.04
256.7981,-3.4
256.8981,-4.81
256.9981,-5.37
257.0981,-7.07
257.1981,-11.68
257.2981,-10.27
257.3981,-8.01
257.4981,-8.57
257.5981,-7.54
257.6981,-1.89
257.7981,1.5
257.8981,2.82
257.9981,2.91
258.0981,1.31
258.1981,-0.29
258.2981,-0.1
258.3981,1.59
258.4981,3.29
258.5981,5.36
258.6981,4.79
258.7981,4.13
258.8981,2.72
258.9981,1.12
259.0981,-1.8
259.1981,-0.01
259.2981,0.84
259.3981,1.12
259.4981,0.27
259.5981,-2.55
259.6981,-3.58
259.7981,-6.41
259.8981,-4.53
259.9981,-1.23
260.0981,0.09
260.1981,-0.1
260.2981,-0.1
260.3981,-0.85
260.4981,-0.57
260.5981,0.18
260.6981,2.06
260.7981,2.06
260.8981,3.29
260.9981,3.76
261.0981,3.38
261.1981,3.66
261.2981,3.1
261.3981,3.85
261.4981,2.44
261.5981,2.06
261.6981,2.53
261.7981,3.76
261.8981,3.29
261.9981,3.1
262.0981,1.69
262.1981,0.18
262.2981,-3.3
262.3981,-5.47
262.4981,-4.05
262.5981,-2.17
262.6981,-3.21
262.7981,-8.48
262.8981,-15.35
262.9981,-13.28
263.0981,-13.09
263.1981,-13.28
263.2981,-7.44
263.3981,-2.64
263.4981,-0.57
263.5981,0.27
263.6981,0.46
263.7981,1.59
263.8981,3.76
263.9981,4.51
264.0981,5.54
264.1981,4.6
264.2981,4.7
264.3981,2.91
264.4981,2.25
264.5981,2.91
264.6981,4.04
264.7981,3.1
264.8981,2.91
264.9981,2.16
265.0981,0.65
265.1981,-0.57
265.2981,-1.14
265.3981,-1.42
265.4981,-3.11
265.5981,-5.65
265.6981,-11.49
265.7981,-8.95
265.8981,-3.96
265.9981,-4.34
266.0981,-4.53
266.1981,-2.45
266.2981,-1.14
266.3981,1.69
266.4981,2.16
266.5981,2.25
266.6981,3.85
266.7981,3.29
266.8981,3.47
266.9981,3.1
267.0981,3.66
267.1981,3.94
267.2981,5.64
267.3981,5.17
267.4981,5.45
267.5981,4.42
267.6981,2.44
267.7981,0.46
267.8981,-0.95
267.9981,-0.67
268.0981,-0.48
268.1981,-0.2
268.2981,-0.57
268.3981,-2.83
268.4981,-6.97
268.5981,-10.93
268.6981,-7.91
268.7981,-6.22
268.8981,-6.69
268.9981,-10.74
269.0981,-16.29
269.1981,-15.07
269.2981,-8.85
269.3981,-3.58
269.4981,0.18
269.5981,1.31
269.6981,2.63
269.7981,3.19
269.8981,3.85
269.9981,3.47
270.0981,2.91
270.1981,3.19
270.2981,3.57
270.3981,3.76
270.4981,4.04
270.5981,3.47
270.6981,3.76
270.7981,1.87
270.8981,0.09
270.9981,-0.76
271.0981,-2.36
271.1981,-2.74
271.2981,-1.98
271.3981,-1.42
271.4981,-1.04
271.5981,-2.93
271.6981,-8.48
271.7981,-6.69
271.8981,-2.83
271.9981,0.18
272.0981,0.65
272.1981,1.12
272.2981,0.46
272.3981,-1.51
272.4981,-2.08
272.5981,-0.2
272.6981,2.53
272.7981,4.42
272.8981,4.6
272.9981,4.13
273.0981,1.97
273.1981,1.78
273.2981,0.84
273.3981,0.37
273.4981,2.16
273.5981,3.19
273.6981,1.78
273.7981,1.03
273.8981,-0.29
273.9981,-2.08
274.0981,-4.43
274.1981,-4.15
274.2981,-1.42
274.3981,0.09
274.4981,-0.57
274.5981,-2.83
274.6981,-4.24
274.7981,-4.15
274.8981,-5.65
274.9981,-8.67
275.0981,-11.11
275.1981,-8.57
275.2981,-4.24
275.3981,-1.61
275.4981,-1.23
275.5981,0.84
275.6981,1.22
275.7981,0.27
275.8981,1.59
275.9981,2.25
276.0981,2.16
276.1981,0.74
276.2981,-1.04
276.3981,-2.55
276.4981,-3.4
276.5981,-1.98
276.6981,0.93
276.7981,2.34
276.8981,1.03
276.9981,-1.61
277.0981,-3.02
277.1981,-3.21
277.2981,-1.7
277.3981,-0.2
277.4981,1.12
277.5981,2.06
277.6981,1.03
277.7981,1.22
277.8981,-0.1
277.9981,0.56
278.0981,1.69
278.1981,4.42
278.2981,4.23
278.3981,4.42
278.4981,3.0
278.5981,2.34
278.6981,1.59
278.7981,0.27
278.8981,0.18
278.9981,1.97
279.0981,0.46
279.1981,-0.76
279.2981,-2.45
279.3981,-6.69
279.4981,-7.63
279.5981,-5.94
279.6981,-4.9
279.7981,-3.11
279.8981,-2.36
279.9981,-1.8
280.0981,-1.8
280.1981,-0.29
280.2981,-0.2
280.3981,0.84
280.4981,1.4
280.5981,1.31
280.6981,1.5
280.7981,-0.57
280.8981,-3.11
280.9981,-8.2
281.0981,-11.77
281.1981,-7.54
281.2981,-2.45
281.3981,-0.57
281.4981,1.69
281.5981,3.85
281.6981,3.57
281.7981,3.29
281.8981,2.06
281.9981,1.12
282.0981,-0.67
282.1981,-3.4
282.2981,-4.71
282.3981,-4.62
282.4981,-5.75
282.5981,-10.27
282.6981,-11.58
282.7981,-6.22
282.8981,-3.02
282.9981,-0.67
283.0981,0.37
283.1981,1.5
283.2981,2.06
283.3981,1.31
283.4981,1.97
283.5981,2.82
283.6981,4.23
283.7981,3.66
283.8981,3.76
283.9981,3.29
284.0981,3.85
284.1981,3.47
284.2981,3.38
284.3981,3.38
284.4981,2.25
284.5981,2.63
284.6981,2.63
284.7981,0.84
284.8981,1.69
284.9981,0.18
285.0981,-1.04
285.1981,-3.21
285.2981,-4.9
285.3981,-7.07
285.4981,-11.96
285.5981,-10.36
285.6981,-7.82
285.7981,-7.73
285.8981,-7.35
285.9981,-3.77
286.0981,-1.23
286.1981,1.4
286.2981,2.72
286.3981,3.66
286.4981,3.57
286.5981,1.97
286.6981,-0.01
286.7981,-1.89
286.8981,-4.24
286.9981,-7.63
287.0981,-8.01
287.1981,-3.58
287.2981,-1.8
287.3981,0.18
287.4981,-0.57
287.5981,-0.1
287.6981,-0.57
287.7981,0.09
287.8981,-0.01
287.9981,0.37
288.0981,-1.04
288.1981,-3.87
288.2981,-6.6
288.3981,-8.85
288.4981,-6.69
288.5981,-4.62
288.6981,-4.24
288.7981,-5.65
288.8981,-6.88
288.9981,-4.81
289.0981,-3.02
289.1981,-0.01
289.2981,1.31
289.3981,2.91
289.4981,3.94
289.5981,3.1
289.6981,3.66
289.7981,3.0
289.8981,2.53
289.9981,2.63
290.0981,2.44
290.1981,1.69
290.2981,2.34
290.3981,1.97
290.4981,1.78
290.5981,-1.42
290.6981,-3.58
290.7981,-3.87
290.8981,-3.49
290.9981,-2.93
291.0981,-4.24
291.1981,-5.0
291.2981,-5.09
291.3981,-4.62
291.4981,-5.28
291.5981,-3.49
291.6981,-1.61
291.7981,-0.48
291.8981,-1.33
291.9981,-0.85
292.0981,-1.51
292.1981,-2.64
292.2981,-1.23
292.3981,0.84
292.4981,1.87
292.5981,1.22
292.6981,-0.76
292.7981,-3.3
292.8981,-7.44
292.9981,-11.87
293.0981,-9.89
293.1981,-4.43
293.2981,-2.27
293.3981,-0.85
293.4981,-0.57
293.5981,-3.11
293.6981,-5.37
293.7981,-6.13
293.8981,-5.18
293.9981,-4.81
294.0981,-4.15
294.1981,-3.4
294.2981,-2.55
294.3981,-3.3
294.4981,-1.51
294.5981,0.46
294.6981,1.03
294.7981,1.69
294.8981,1.97
294.9981,1.12
295.0981,0.18
295.1981,-0.01
295.2981,-1.89
295.3981,-0.29
295.4981,-0.2
295.5981,-1.04
295.6981,-1.23
295.7981,-1.8
295.8981,-1.33
295.9981,-0.95
296.0981,-1.8
296.1981,-3.02
296.2981,-2.17
296.3981,-3.21
296.4981,-3.49
296.5981,-2.64
296.6981,-3.77
296.7981,-5.94
296.8981,-5.09
296.9981,-3.21
297.0981,-1.89
297.1981,-1.23
297.2981,0.65
297.3981,1.22
297.4981,1.78
297.5981,0.93
297.6981,1.31
297.7981,2.34
297.8981,3.19
297.9981,2.91
298.0981,2.63
298.1981,2.34
298.2981,2.16
298.3981,2.06
298.4981,0.93
298.5981,-2.93
298.6981,-5.75
298.7981,-8.57
298.8981,-14.97
298.9981,-20.9
299.8981,-14.22
299.9981,-19.3
300.0981,-17.23
300.1981,-13.09
300.2981,-10.55
300.3981,-8.01
300.4981,-7.44
300.5981,-6.41
300.6981,-4.53
300.7981,-1.8
300.8981,-0.95
300.9981,-0.57
301.0981,-0.2
301.1981,0.18
301.2981,-0.48
301.3981,0.18
301.4981,2.34
301.5981,2.72
301.6981,3.19
301.7981,2.91
301.8981,2.63
301.9981,3.38
302.0981,3.0
302.1981,2.91
302.2981,3.19
302.3981,3.47
302.4981,1.97
302.5981,1.69
302.6981,1.31
302.7981,-0.38
302.8981,-2.64
302.9981,-6.97
303.0981,-9.8
303.1981,-9.51
303.2981,-10.17
303.3981,-16.1
303.4981,-12.43
303.5981,-6.6
303.6981,-2.17
303.7981,-0.67
303.8981,-0.38
303.9981,0.93
304.0981,1.22
304.1981,1.4
304.2981,1.69
304.3981,2.44
304.4981,1.97
304.5981,3.29
304.6981,2.53
304.7981,3.85
304.8981,3.38
304.9981,4.13
305.0981,2.44
305.1981,2.25
305.2981,2.63
305.3981,1.22
305.4981,0.84
305.5981,-0.76
305.6981,-2.64
305.7981,-7.07
305.8981,-14.69
305.9981,-19.87
306.0981,-16.48
306.1981,-14.41
306.2981,-14.31
306.3981,-12.24
306.4981,-9.89
306.5981,-9.14
306.6981,-5.94
306.7981,-3.49
306.8981,-0.29
306.9981,1.5
307.0981,2.63
307.1981,3.0
307.2981,2.72
307.3981,2.25
307.4981,2.16
307.5981,2.53
307.6981,3.1
307.7981,4.13
307.8981,4.98
307.9981,4.13
308.0981,1.4
308.1981,1.4
308.2981,-0.29
308.3981,-0.95
308.4981,-1.51
308.5981,-0.76
308.6981,-1.7
308.7981,-2.83
308.8981,-5.56
308.9981,-8.38
309.0981,-10.08
309.1981,-10.93
309.2981,-9.61
309.3981,-7.16
309.4981,-5.56
309.5981,-5.18
309.6981,-4.43
309.7981,-3.02
309.8981,-2.45
309.9981,0.18
310.0981,1.78
310.1981,1.5
310.2981,2.16
310.3981,2.53
310.4981,3.1
310.5981,3.1
310.6981,3.29
310.7981,2.63
310.8981,1.97
310.9981,1.4
311.0981,1.69
311.1981,1.5
311.2981,-0.29
311.3981,-1.8
311.4981,-4.05
311.5981,-7.63
311.6981,-11.3
311.7981,-14.13
311.8981,-19.96
311.9981,-18.17
312.0981,-12.81
312.1981,-9.7
312.2981,-7.07
312.3981,-4.71
312.4981,-2.55
312.5981,-2.83
312.6981,-2.17
312.7981,-1.42
312.8981,-0.29
312.9981,-0.76
313.0981,-0.76
313.1981,-0.2
313.2981,-0.01
313.3981,0.65
313.4981,1.5
313.5981,0.84
313.6981,0.84
313.7981,0.84
313.8981,0.84
313.9981,-0.2
314.0981,-0.57
314.1981,-0.57
314.2981,-3.58
314.3981,-5.47
314.4981,-3.77
314.5981,-3.02
314.6981,-4.62
314.7981,-6.03
314.8981,-5.75
314.9981,-2.74
315.0981,-1.14
315.1981,-0.38
315.2981,-0.1
315.3981,0.46
315.4981,0.56
315.5981,-1.14
315.6981,0.09
315.7981,1.31
315.8981,1.31
315.9981,0.84
316.0981,-0.1
316.1981,-0.38
316.2981,-1.42
316.3981,-3.68
316.4981,-4.05
316.5981,-2.17
316.6981,-0.2
316.7981,-1.89
316.8981,-3.49
316.9981,-5.18
317.0981,-6.78
317.1981,-7.73
317.2981,-4.62
317.3981,-2.36
317.4981,-3.11
317.5981,-5.75
317.6981,-10.17
317.7981,-14.03
317.8981,-16.01
317.9981,-10.83
318.0981,-4.81
318.1981,-2.08
318.2981,0.84
318.3981,2.25
318.4981,2.25
318.5981,2.06
318.6981,2.82
318.7981,1.87
318.8981,2.06
318.9981,2.82
319.0981,3.1
319.1981,2.44
319.2981,1.4
319.3981,-1.04
319.4981,-4.53
319.5981,-7.25
319.6981,-9.04
319.7981,-8.01
319.8981,-6.88
319.9981,-9.04
320.0981,-12.15
320.1981,-11.58
320.2981,-6.88
320.3981,-3.58
320.4981,-1.04
320.5981,0.18
320.6981,-0.1
320.7981,0.56
320.8981,-0.95
320.9981,-0.38
321.0981,-0.01
321.1981,1.22
321.2981,4.23
321.3981,4.79
321.4981,4.7
321.5981,3.1
321.6981,3.1
321.7981,2.82
321.8981,2.53
321.9981,3.19
322.0981,3.76
322.1981,3.76
322.2981,3.66
322.3981,0.93
322.4981,-0.01
322.5981,-3.77
322.6981,-6.69
322.7981,-9.42
322.8981,-10.64
322.9981,-12.81
323.0981,-17.33
323.1981,-17.33
323.2981,-7.16
323.3981,-3.3
323.4981,-3.3
323.5981,-4.24
323.6981,-5.37
323.7981,-11.02
323.8981,-12.9
323.9981,-8.38
324.0981,-4.24
324.1981,-0.67
324.2981,1.4
324.3981,3.85
324.4981,3.76
324.5981,3.19
324.6981,3.19
324.7981,2.91
324.8981,3.1
324.9981,2.25
325.0981,2.16
325.1981,1.78
325.2981,0.74
325.3981,1.69
325.4981,1.12
325.5981,-0.85
325.6981,-4.53
325.7981,-10.36
325.8981,-29.75
325.9981,-18.17
326.0981,-14.22
326.1981,-9.51
326.2981,-5.75
326.3981,-5.75
326.4981,-2.17
326.5981,0.37
326.6981,1.5
326.7981,2.72
326.8981,4.32
326.9981,3.85
327.0981,2.63
327.1981,3.29
327.2981,1.78
327.3981,2.53
327.4981,2.82
327.5981,3.1
327.6981,3.94
327.7981,2.53
327.8981,1.4
327.9981,-0.2
328.0981,-0.85
328.1981,-1.98
328.2981,-1.33
328.3981,-0.95
328.4981,-2.08
328.5981,-3.87
328.6981,-5.28
328.7981,-7.25
328.8981,-8.85
328.9981,-12.71
329.0981,-12.05
329.1981,-8.48
329.2981,-6.5
329.3981,-5.94
329.4981,-5.37
329.5981,-6.97
329.6981,-8.85
329.7981,-13.09
329.8981,-11.21
329.9981,-4.62
330.0981,-0.76
330.1981,2.16
330.2981,3.38
330.3981,3.0
330.4981,1.69
330.5981,0.27
330.6981,0.09
330.7981,0.18
330.8981,0.09
330.9981,0.09
331.0981,-0.76
331.1981,-3.3
331.2981,-6.31
331.3981,-8.38
331.4981,-6.13
331.5981,-3.68
331.6981,-3.4
331.7981,-3.58
331.8981,-5.0
331.9981,-6.6
332.0981,-5.0
332.1981,-3.21
332.2981,-1.33
332.3981,-1.04
332.4981,-1.04
332.5981,-1.8
332.6981,-1.23
332.7981,-1.42
332.8981,-2.08
332.9981,-0.38
333.0981,1.12
333.1981,2.53
333.2981,2.63
333.3981,1.22
333.4981,-0.2
333.5981,-2.08
333.6981,-2.64
333.7981,-3.02
333.8981,-2.55
333.9981,-2.08
334.0981,-2.83
334.1981,-5.84
334.2981,-8.2
334.3981,-8.48
334.4981,-6.13
334.5981,-3.11
334.6981,-0.85
334.7981,0.46
334.8981,0.93
334.9981,-0.1
335.0981,0.46
335.1981,-1.33
335.2981,-1.14
335.3981,-0.95
335.4981,-1.23
335.5981,-3.02
335.6981,-6.78
335.7981,-12.62
335.8981,-11.87
335.9981,-10.27
336.0981,-8.29
336.1981,-5.75
336.2981,-1.33
336.3981,-0.76
336.4981,-0.48
336.5981,-1.33
336.6981,-5.56
336.7981,-10.36
336.8981,-8.67
336.9981,-5.56
337.0981,-2.93
337.1981,-2.08
337.2981,-2.45
337.3981,-5.94
337.4981,-6.41
337.5981,-3.77
337.6981,-0.1
337.7981,2.16
337.8981,2.72
337.9981,2.25
338.0981,1.87
338.1981,2.06
338.2981,1.12
338.3981,2.53
338.4981,1.87
338.5981,2.91
338.6981,2.63
338.7981,2.53
338.8981,1.87
338.9981,0.74
339.0981,-0.57
339.1981,-2.83
339.2981,-5.75
339.3981,-6.22
339.4981,-5.47
339.5981,-7.07
339.6981,-9.14
339.7981,-13.37
339.8981,-15.44
339.9981,-9.7
340.0981,-4.24
340.1981,-1.98
340.2981,-1.04
340.3981,-1.23
340.4981,-1.14
340.5981,-1.23
340.6981,-1.23
340.7981,0.37
340.8981,2.34
340.9981,2.91
341.0981,3.76
341.1981,2.53
341.2981,2.72
341.3981,0.18
341.4981,-2.27
341.5981,-4.62
341.6981,-8.29
341.7981,-9.61
341.8981,-5.18
341.9981,-2.36
342.0981,-1.33
342.1981,-2.27
342.2981,-6.6
342.3981,-10.74
342.4981,-10.27
342.5981,-11.3
342.6981,-12.9
342.7981,-19.02
342.8981,-15.07
342.9981,-7.16
343.0981,-2.74
343.1981,0.37
343.2981,1.12
343.3981,1.69
343.4981,1.69
343.5981,1.12
343.6981,1.22
343.7981,1.87
343.8981,1.69
343.9981,1.4
344.0981,3.0
344.1981,1.87
344.2981,1.4
344.3981,1.5
344.4981,2.06
344.5981,1.31
344.6981,1.5
344.7981,0.18
344.8981,1.22
344.9981,1.03
345.0981,0.27
345.1981,-0.48
345.2981,-0.95
345.3981,-2.36
345.4981,-6.78
345.5981,-16.29
345.6981,-14.6
345.7981,-9.61
345.8981,-6.97
345.9981,-7.07
346.0981,-5.75
346.1981,-3.3
346.2981,-0.95
346.3981,2.16
346.4981,3.29
346.5981,3.0
346.6981,3.57
346.7981,3.29
346.8981,2.53
346.9981,2.25
347.0981,1.87
347.1981,2.34
347.2981,1.12
347.3981,0.37
347.4981,-2.27
347.5981,-6.6
347.6981,-13.75
347.7981,-14.22
347.8981,-9.14
347.9981,-6.13
348.0981,-3.96
348.1981,-2.55
348.2981,-2.55
348.3981,-4.62
348.4981,-6.03
348.5981,-8.01
348.6981,-10.36
348.7981,-14.13
348.8981,-14.13
348.9981,-8.76
349.0981,-6.03
349.1981,-4.62
349.2981,-3.4
349.3981,-2.55
349.4981,-1.8
349.5981,-0.67
349.6981,0.09
349.7981,1.03
349.8981,1.78
349.9981,1.69
350.0981,1.12
350.1981,-0.95
350.2981,-2.64
350.3981,-2.64
350.4981,-2.83
350.5981,-2.83
350.6981,-2.74
350.7981,-5.37
350.8981,-8.76
350.9981,-19.96
351.0981,-11.11
351.1981,-4.62
351.2981,-2.36
351.3981,-1.23
351.4981,-1.98
351.5981,-4.34
351.6981,-7.07
351.7981,-5.65
351.8981,-2.83
351.9981,-0.76
352.0981,0.27
352.1981,0.65
352.2981,-1.89
352.3981,-4.34
352.4981,-4.81
352.5981,-2.64
352.6981,-0.57
352.7981,0.37
352.8981,1.03
352.9981,0.27
353.0981,-0.57
353.1981,-2.27
353.2981,-4.05
353.3981,-6.03
353.4981,-10.74
353.5981,-16.29
353.6981,-22.41
353.7981,-24.76
353.8981,-28.05
353.9981,-35.21
354.0981,-34.27
354.1981,-29.18
354.2981,-26.93
354.3981,-24.85
354.4981,-23.25
354.5981,-22.31
354.6981,-22.41
354.7981,-23.35
354.8981,-23.82
354.9981,-23.73
355.0981,-23.35
355.1981,-22.97
355.2981,-22.22
355.3981,-22.03
355.4981,-22.97
355.5981,-25.33
355.6981,-28.34
355.7981,-29.28
355.8981,-27.68
355.9981,-26.36
356.0981,-25.7
356.1981,-25.98
356.2981,-27.58
356.3981,-32.67
356.4981,-41.89
356.5981,-35.3
356.6981,-31.07
356.7981,-30.5
356.8981,-32.1
356.9981,-34.27
357.0981,-36.34
357.1981,-31.82
357.2981,-27.11
357.3981,-24.29
357.4981,-22.88
357.5981,-22.31
357.6981,-22.69
357.7981,-22.69
357.8981,-22.5
357.9981,-22.22
358.0981,-20.9
358.1981,-20.43
358.2981,-20.05
358.3981,-20.34
358.4981,-21.56
358.5981,-22.88
358.6981,-24.1
358.7981,-25.23
358.8981,-26.55
358.9981,-27.96
359.0981,-29.18
359.1981,-31.07
359.2981,-33.33
359.3981,-34.55
359.4981,-31.44
359.5981,-28.81
359.6981,-25.04
359.7981,-15.91
359.8981,-9.04
359.9981,-4.53
360.0981,-3.11
360.1981,-2.17
360.2981,-3.4
360.3981,-2.17
360.4981,-0.2
360.5981,1.97
360.6981,2.63
360.7981,2.91
360.8981,3.47
360.9981,2.53
361.0981,1.87
361.1981,1.22
361.2981,1.5
361.3981,2.34
361.4981,3.19
361.5981,2.53
361.6981,1.31
361.7981,-0.1
361.8981,-2.36
361.9981,-5.65
362.0981,-9.8
362.1981,-12.62
362.2981,-12.9
362.3981,-16.76
362.4981,-27.68
362.5981,-11.4
362.6981,-6.6
362.7981,-4.43
362.8981,-2.45
362.9981,-0.95
363.0981,-0.2
363.1981,-1.33
363.2981,-1.04
363.3981,0.27
363.4981,2.16
363.5981,2.16
363.6981,1.69
363.7981,1.4
363.8981,1.12
363.9981,1.03
364.0981,2.06
364.1981,3.1
364.2981,1.69
364.3981,0.65
364.4981,-0.1
364.5981,-1.04
364.6981,-1.23
364.7981,-1.98
364.8981,-2.36
364.9981,-3.58
365.0981,-4.71
365.1981,-7.82
365.2981,-13.56
365.3981,-15.07
365.4981,-13.65
365.5981,-17.23
365.6981,-17.33
365.7981,-12.62
365.8981,-8.67
365.9981,-4.05
366.0981,-0.67
366.1981,1.87
366.2981,3.38
366.3981,3.0
366.4981,2.16
366.5981,1.12
366.6981,-0.2
366.7981,0.37
366.8981,0.37
366.9981,0.27
367.0981,0.93
367.1981,-0.01
367.2981,-0.57
367.3981,-4.05
367.4981,-5.09
367.5981,-3.21
367.6981,-3.21
367.7981,-3.68
367.8981,-5.18
367.9981,-5.56
368.0981,-6.88
368.1981,-9.61
368.2981,-10.08
368.3981,-9.42
368.4981,-8.57
368.5981,-8.57
368.6981,-6.78
368.7981,-3.21
368.8981,-3.11
368.9981,-1.98
369.0981,-0.67
369.1981,-0.76
369.2981,0.56
369.3981,1.87
369.4981,3.1
369.5981,2.72
369.6981,1.97
369.7981,1.03
369.8981,-0.48
369.9981,-2.93
370.0981,-3.87
370.1981,-3.21
370.2981,-2.45
370.3981,-3.21
370.4981,-5.0
370.5981,-9.89
370.6981,-31.54
370.7981,-8.29
370.8981,-3.3
370.9981,-2.17
371.0981,-1.04
371.1981,-4.15
371.2981,-7.25
371.3981,-10.45
371.4981,-12.34
371.5981,-14.6
371.6981,-11.49
371.7981,-5.37
371.8981,-2.74
371.9981,-2.36
372.0981,-3.4
372.1981,-3.11
372.2981,-1.51
372.3981,0.37
372.4981,1.12
372.5981,0.37
372.6981,1.03
372.7981,-0.95
372.8981,-2.55
372.9981,-3.49
373.0981,-3.11
373.1981,-2.93
373.2981,-5.28
373.3981,-9.61
373.4981,-18.27
373.5981,-20.71
373.6981,-12.62
373.7981,-7.63
373.8981,-4.53
373.9981,-2.74
374.0981,-1.61
374.1981,0.84
374.2981,1.69
374.3981,2.72
374.4981,2.53
374.5981,1.59
374.6981,1.78
374.7981,2.53
374.8981,2.16
374.9981,3.29
375.0981,1.97
375.1981,0.56
375.2981,0.46
375.3981,-2.55
375.4981,-4.62
375.5981,-4.05
375.6981,-3.11
375.7981,-2.45
375.8981,-2.64
375.9981,-5.47
376.0981,-8.48
376.1981,-11.68
376.2981,-11.68
376.3981,-9.61
376.4981,-8.95
376.5981,-12.34
376.6981,-20.43
376.7981,-7.91
376.8981,-4.43
376.9981,-2.17
377.0981,-0.29
377.1981,0.18
377.2981,-0.48
377.3981,-3.49
377.4981,-7.73
377.5981,-10.83
377.6981,-5.56
377.7981,-0.95
377.8981,2.16
377.9981,3.1
378.0981,2.53
378.1981,2.72
378.2981,1.22
378.3981,-0.1
378.4981,-0.95
378.5981,-1.33
378.6981,-3.4
378.7981,-7.44
378.8981,-12.9
378.9981,-24.48
379.0981,-14.88
379.1981,-10.45
379.2981,-9.89
379.3981,-11.77
379.4981,-13.37
379.5981,-8.29
379.6981,-4.62
379.7981,-3.02
379.8981,-1.33
379.9981,-2.08
380.0981,-1.89
380.1981,-0.1
380.2981,0.27
380.3981,2.44
380.4981,2.63
380.5981,3.47
380.6981,3.94
380.7981,4.42
380.8981,2.53
380.9981,2.34
381.0981,1.97
381.1981,3.38
381.2981,3.66
381.3981,3.57
381.4981,1.03
381.5981,-0.48
381.6981,-3.49
381.7981,-5.65
381.8981,-9.61
381.9981,-13.94
382.0981,-15.63
382.1981,-10.45
382.2981,-6.5
382.3981,-3.77
382.4981,-2.27
382.5981,-1.51
382.6981,-0.95
382.7981,-1.14
382.8981,-1.33
382.9981,-0.2
383.0981,0.27
383.1981,-0.2
383.2981,-1.98
383.3981,-6.97
383.4981,-13.28
383.5981,-13.56
383.6981,-7.16
383.7981,-3.3
383.8981,-0.85
383.9981,1.59
384.0981,0.65
384.1981,1.12
384.2981,-0.95
384.3981,-2.27
384.4981,-2.08
384.5981,-2.55
384.6981,-2.74
384.7981,-5.47
384.8981,-8.29
384.9981,-10.64
385.0981,-8.2
385.1981,-5.47
385.2981,-4.34
385.3981,-4.53
385.4981,-4.15
385.5981,-2.45
385.6981,-0.48
385.7981,1.5
385.8981,2.63
385.9981,3.0
386.0981,2.53
386.1981,3.0
386.2981,0.46
386.3981,-0.01
386.4981,-0.57
386.5981,0.37
386.6981,0.37
386.7981,-0.01
386.8981,-1.33
386.9981,-2.83
387.0981,-3.96
387.1981,-5.18
387.2981,-3.96
387.3981,-3.3
387.4981,-3.87
387.5981,-5.09
387.6981,-8.2
387.7981,-9.7
387.8981,-11.68
387.9981,-12.15
388.0981,-11.96
388.1981,-10.17
388.2981,-9.8
388.3981,-6.22
388.4981,-3.3
388.5981,-1.8
388.6981,0.46
388.7981,-0.48
388.8981,-0.85
388.9981,-0.2
389.0981,-0.1
389.1981,-1.14
389.2981,-2.36
389.3981,-6.13
389.4981,-11.96
389.5981,-11.21
389.6981,-9.33
389.7981,-9.42
389.8981,-9.61
389.9981,-8.38
390.0981,-7.91
390.1981,-10.08
390.2981,-15.07
390.3981,-10.93
390.4981,-5.28
390.5981,-3.11
390.6981,-1.98
390.7981,-1.7
390.8981,-1.98
390.9981,-1.7
391.0981,-2.55
391.1981,-1.04
391.2981,-0.57
391.3981,-0.2
391.4981,0.09
391.5981,-0.85
391.6981,-0.95
391.7981,-0.95
391.8981,-0.2
391.9981,0.09
392.0981,0.74
392.1981,0.65
392.2981,-0.2
392.3981,-1.42
392.4981,-2.36
392.5981,-2.45
392.6981,-1.8
392.7981,-3.21
392.8981,-3.96
392.9981,-8.2
393.0981,-15.07
393.1981,-14.78
393.2981,-6.97
393.3981,-5.0
393.4981,-4.71
393.5981,-4.34
393.6981,-2.45
393.7981,-0.76
393.8981,0.56
393.9981,1.97
394.0981,2.25
394.1981,3.47
394.2981,3.0
394.3981,1.5
394.4981,1.31
394.5981,2.16
394.6981,2.06
394.7981,1.59
394.8981,1.22
394.9981,0.56
395.0981,-1.23
395.1981,-4.62
395.2981,-10.55
395.3981,-14.78
395.4981,-17.23
395.5981,-14.22
395.6981,-11.11
395.7981,-12.43
395.8981,-14.13
395.9981,-20.15
396.0981,-29.37
396.1981,-18.17
396.2981,-13.65
396.3981,-9.61
396.4981,-5.0
396.5981,-1.04
396.6981,0.27
396.7981,0.65
396.8981,1.12
396.9981,1.59
397.0981,2.91
397.1981,2.53
397.2981,3.57
397.3981,4.32
397.4981,4.23
397.5981,2.82
397.6981,2.34
397.7981,1.03
397.8981,0.65
397.9981,0.84
398.0981,-0.2
398.1981,0.27
398.2981,-0.95
398.3981,-2.74
398.4981,-5.37
398.5981,-11.77
398.6981,-19.68
398.7981,-15.54
398.8981,-13.37
398.9981,-15.16
399.0981,-17.42
399.1981,-11.87
399.2981,-6.03
399.3981,-4.05
399.4981,-1.8
399.5981,-1.04
399.6981,-1.14
399.7981,-2.36
399.8981,-1.51
399.9981,0.09
400.0981,0.74
400.1981,2.63
400.2981,2.72
400.3981,4.13
400.4981,2.91
400.5981,2.72
400.6981,2.16
400.7981,2.44
400.8981,2.06
400.9981,-0.01
401.0981,-2.27
401.1981,-5.75
401.2981,-9.61
401.3981,-16.1
401.4981,-18.45
401.5981,-16.76
401.6981,-14.97
401.7981,-12.62
401.8981,-7.91
401.9981,-4.9
402.0981,-3.4
402.1981,-1.23
402.2981,-1.98
402.3981,-1.7
402.4981,-1.61
402.5981,-1.42
402.6981,-0.1
402.7981,0.65
402.8981,1.31
402.9981,1.69
403.0981,0.27
403.1981,-2.17
403.2981,-2.55
403.3981,-0.38
403.4981,0.18
403.5981,1.4
403.6981,0.65
403.7981,0.37
403.8981,-0.76
403.9981,-1.61
404.0981,-3.68
404.1981,-4.05
404.2981,-3.3
404.3981,-2.74
404.4981,-5.65
404.5981,-8.95
404.6981,-13.18
404.7981,-10.74
404.8981,-7.63
404.9981,-5.56
405.0981,-3.87
405.1981,-3.96
405.2981,-2.93
405.3981,-1.04
405.4981,1.4
405.5981,1.97
405.6981,1.78
405.7981,1.22
405.8981,0.56
405.9981,1.12
406.0981,-0.95
406.1981,-1.42
406.2981,-2.74
406.3981,-3.49
406.4981,-4.05
406.5981,-7.35
406.6981,-9.04
406.7981,-6.88
406.8981,-7.82
406.9981,-8.29
407.0981,-11.02
407.1981,-14.5
407.2981,-18.74
407.3981,-23.35
407.4981,-19.77
407.5981,-14.03
407.6981,-11.87
407.7981,-13.56
407.8981,-19.87
407.9981,-11.96
408.0981,-6.03
408.1981,-3.87
408.2981,-1.51
408.3981,-1.42
408.4981,-1.23
408.5981,-2.36
408.6981,-2.27
408.7981,-1.98
408.8981,-0.2
408.9981,-0.38
409.0981,0.09
409.1981,0.18
409.2981,-0.67
409.3981,-3.49
409.4981,-7.54
409.5981,-12.15
409.6981,-18.93
409.7981,-18.27
409.8981,-20.62
409.9981,-21.28
410.0981,-14.03
410.1981,-9.04
410.2981,-6.41
410.3981,-5.0
410.4981,-4.05
410.5981,-4.15
410.6981,-2.93
410.7981,-2.45
410.8981,-2.08
410.9981,-2.83
411.0981,-3.77
411.1981,-3.77
411.2981,-5.84
411.3981,-4.53
411.4981,-3.68
411.5981,-1.8
411.6981,-1.61
411.7981,-1.42
411.8981,-2.64
411.9981,-4.34
412.0981,-5.37
412.1981,-3.77
412.2981,-4.05
412.3981,-3.68
412.4981,-4.81
412.5981,-6.03
412.6981,-9.33
412.7981,-13.56
412.8981,-13.28
412.9981,-10.83
413.0981,-10.17
413.1981,-14.13
413.2981,-17.8
413.3981,-18.64
413.4981,-12.15
413.5981,-5.47
413.6981,-2.55
413.7981,-1.14
413.8981,0.37
413.9981,0.18
414.0981,-0.76
414.1981,-1.61
414.2981,-1.7
414.3981,-1.42
414.4981,-0.67
414.5981,-1.42
414.6981,-2.64
414.7981,-4.15
414.8981,-5.18
414.9981,-7.54
415.0981,-8.29
415.1981,-7.35
415.2981,-5.94
415.3981,-7.16
415.4981,-9.42
415.5981,-11.4
415.6981,-15.63
415.7981,-21.18
415.8981,-13.65
415.9981,-10.36
416.0981,-8.29
416.1981,-7.44
416.2981,-4.43
416.3981,-3.11
416.4981,-1.89
416.5981,-1.14
416.6981,-0.38
416.7981,1.12
416.8981,3.19
416.9981,2.25
417.0981,2.91
417.1981,2.72
417.2981,1.59
417.3981,1.03
417.4981,-1.51
417.5981,-2.45
417.6981,-2.08
417.7981,-1.8
417.8981,-2.36
417.9981,-3.87
418.0981,-6.69
418.1981,-11.96
418.2981,-14.13
418.3981,-9.7
418.4981,-7.07
418.5981,-6.88
418.6981,-9.7
418.7981,-12.71
418.8981,-9.98
418.9981,-8.01
419.0981,-8.29
419.1981,-9.89
419.2981,-13.94
419.3981,-15.16
419.4981,-9.98
419.5981,-6.6
419.6981,-3.58
419.7981,0.18
419.8981,1.97
419.9981,2.34
420.0981,1.69
420.1981,1.4
420.2981,2.34
420.3981,1.5
420.4981,1.5
420.5981,2.06
420.6981,0.74
420.7981,-1.8
420.8981,-2.93
420.9981,-4.9
421.0981,-9.14
421.1981,-12.81
421.2981,-16.01
421.3981,-16.01
421.4981,-10.17
421.5981,-6.6
421.6981,-3.77
421.7981,-3.3
421.8981,-3.11
421.9981,-2.36
422.0981,-3.21
422.1981,-2.74
422.2981,-2.45
422.3981,-0.85
422.4981,0.56
422.5981,-1.23
422.6981,-1.51
422.7981,-1.14
422.8981,-1.98
422.9981,-1.89
423.0981,-1.04
423.1981,0.18
423.2981,0.84
423.3981,0.65
423.4981,-0.2
423.5981,-1.7
423.6981,-3.4
423.7981,-4.62
423.8981,-4.62
423.9981,-4.53
424.0981,-4.05
424.1981,-5.18
424.2981,-8.01
424.3981,-8.85
424.4981,-5.75
424.5981,-5.37
424.6981,-4.43
424.7981,-3.11
424.8981,-1.8
424.9981,-3.11
425.0981,-4.71
425.1981,-6.97
425.2981,-11.49
425.3981,-10.64
425.4981,-5.84
425.5981,-3.11
425.6981,-1.89
425.7981,-1.7
425.8981,-0.85
425.9981,-2.93
426.0981,-3.87
426.1981,-6.5
426.2981,-6.6
426.3981,-7.07
426.4981,-5.09
426.5981,-3.68
426.6981,-3.3
426.7981,-5.84
426.8981,-8.01
426.9981,-9.7
427.0981,-8.67
427.1981,-5.18
427.2981,-4.9
427.3981,-5.09
427.4981,-7.73
427.5981,-13.84
427.6981,-9.23
427.7981,-2.64
427.8981,-0.76
427.9981,0.09
428.0981,0.46
428.1981,0.65
428.2981,-0.2
428.3981,-0.38
428.4981,0.27
428.5981,2.06
428.6981,2.53
428.7981,2.25
428.8981,1.31
428.9981,-0.57
429.0981,-2.83
429.1981,-5.28
429.2981,-9.8
429.3981,-17.04
429.4981,-31.25
429.5981,-21.0
429.6981,-12.9
429.7981,-8.29
429.8981,-5.84
429.9981,-3.4
430.0981,-1.14
430.1981,-1.61
430.2981,-0.2
430.3981,-0.57
430.4981,-0.76
430.5981,-0.95
430.6981,-0.85
430.7981,-1.98
430.8981,-1.98
430.9981,-5.18
431.0981,-8.57
431.1981,-11.96
431.2981,-14.22
431.3981,-10.17
431.4981,-7.44
431.5981,-4.43
431.6981,-5.09
431.7981,-3.11
431.8981,-1.51
431.9981,-0.29
432.0981,-1.61
432.1981,-2.36
432.2981,-5.37
432.3981,-8.85
432.4981,-10.93
432.5981,-9.51
432.6981,-9.04
432.7981,-8.2
432.8981,-6.41
432.9981,-4.15
433.0981,-1.98
433.1981,0.09
433.2981,3.19
433.3981,3.57
433.4981,3.19
433.5981,3.29
433.6981,2.06
433.7981,1.31
433.8981,-0.38
433.9981,-0.1
434.0981,-0.38
434.1981,0.65
434.2981,0.46
434.3981,-1.14
434.4981,-3.96
434.5981,-7.73
434.6981,-8.38
434.7981,-6.78
434.8981,-6.6
434.9981,-6.78
435.0981,-7.91
435.1981,-10.36
435.2981,-13.28
435.3981,-15.73
435.4981,-17.89
435.5981,-17.7
435.6981,-10.93
435.7981,-6.22
435.8981,-3.87
435.9981,-2.64
436.0981,-0.95
436.1981,-0.48
436.2981,1.03
436.3981,1.87
436.4981,2.25
436.5981,4.98
436.6981,4.04
436.7981,3.76
436.8981,1.69
436.9981,-0.85
437.0981,-5.18
437.1981,-10.93
437.2981,-13.75
437.3981,-10.27
437.4981,-7.54
437.5981,-5.94
437.6981,-6.41
437.7981,-10.17
437.8981,-13.18
437.9981,-9.98
438.0981,-5.75
438.1981,-4.15
438.2981,-4.53
438.3981,-5.09
438.4981,-5.09
438.5981,-4.15
438.6981,-1.51
438.7981,-0.67
438.8981,-0.67
438.9981,-0.95
439.0981,-2.83
439.1981,-2.93
439.2981,-1.89
439.3981,-0.48
439.4981,1.12
439.5981,1.87
439.6981,2.53
439.7981,2.25
439.8981,1.97
439.9981,2.25
440.0981,1.87
440.1981,1.59
440.2981,1.5
440.3981,0.46
440.4981,0.09
440.5981,-2.36
440.6981,-4.62
440.7981,-7.16
440.8981,-10.45
440.9981,-12.62
441.0981,-10.55
441.1981,-6.13
441.2981,-2.36
441.3981,-1.23
441.4981,0.46
441.5981,0.09
441.6981,1.22
441.7981,-0.57
441.8981,-0.38
441.9981,0.27
442.0981,1.12
442.1981,0.84
442.2981,0.84
442.3981,0.37
442.4981,-1.61
442.5981,-2.83
442.6981,-1.8
442.7981,-1.42
442.8981,-2.08
442.9981,-3.96
443.0981,-8.29
443.1981,-14.31
443.2981,-15.07
443.3981,-11.3
443.4981,-8.85
443.5981,-6.88
443.6981,-6.41
443.7981,-6.97
443.8981,-11.02
443.9981,-13.18
444.0981,-8.38
444.1981,-5.47
444.2981,-2.64
444.3981,-1.98
444.4981,-0.67
444.5981,0.27
444.6981,0.56
444.7981,1.31
444.8981,1.87
444.9981,1.69
445.0981,1.97
445.1981,2.25
445.2981,1.5
445.3981,-0.48
445.4981,-0.85
445.5981,-1.04
445.6981,-1.14
445.7981,-3.58
445.8981,-7.16
445.9981,-11.21
446.0981,-8.67
446.1981,-6.6
446.2981,-5.28
446.3981,-5.09
446.4981,-4.71
446.5981,-9.14
446.6981,-9.14
446.7981,-6.31
446.8981,-4.71
446.9981,-5.28
447.0981,-7.73
447.1981,-8.2
447.2981,-8.57
447.3981,-5.56
447.4981,-2.74
447.5981,-0.1
447.6981,0.84
447.7981,1.31
447.8981,2.25
447.9981,1.69
448.0981,2.34
448.1981,2.16
448.2981,3.38
448.3981,3.19
448.4981,2.63
448.5981,1.97
448.6981,-1.14
448.7981,-6.69
448.8981,-12.05
448.9981,-15.82
449.0981,-21.28
449.1981,-31.82
449.2981,-31.25
449.3981,-15.35
449.4981,-7.73
449.5981,-3.77
449.6981,-1.51
449.7981,-0.38
449.8981,-0.1
449.9981,-0.85
450.0981,-0.57
450.1981,0.18
450.2981,-0.2
450.3981,0.18
450.4981,-0.01
450.5981,0.56
450.6981,-0.38
450.7981,-1.33
450.8981,-0.29
450.9981,0.27
451.0981,-0.1
451.1981,0.37
451.2981,0.09
451.3981,0.18
451.4981,-0.29
451.5981,-0.57
451.6981,-1.7
451.7981,-1.7
451.8981,-3.11
451.9981,-4.71
452.0981,-7.63
452.1981,-11.02
452.2981,-8.76
452.3981,-6.88
452.4981,-6.31
452.5981,-4.81
452.6981,-2.27
452.7981,-0.57
452.8981,2.34
452.9981,3.0
453.0981,3.66
453.1981,4.04
453.2981,3.29
453.3981,2.16
453.4981,2.25
453.5981,1.59
453.6981,1.03
453.7981,0.65
453.8981,0.09
453.9981,-0.29
454.0981,-2.08
454.1981,-5.18
454.2981,-6.6
454.3981,-5.09
454.4981,-4.43
454.5981,-4.62
454.6981,-5.84
454.7981,-8.57
454.8981,-12.53
454.9981,-17.51
455.0981,-21.37
455.1981,-22.31
455.2981,-18.27
455.3981,-21.75
455.4981,-16.57
455.5981,-6.5
455.6981,-1.98
455.7981,0.65
455.8981,0.56
455.9981,0.27
456.0981,1.22
456.1981,0.84
456.2981,1.69
456.3981,3.76
456.4981,3.47
456.5981,2.82
456.6981,2.82
456.7981,1.12
456.8981,-0.01
456.9981,-0.38
457.0981,-1.89
457.1981,-3.02
457.2981,-4.53
457.3981,-7.44
457.4981,-10.93
457.5981,-13.94
457.6981,-8.85
457.7981,-6.69
457.8981,-5.56
457.9981,-4.43
458.0981,-4.43
458.1981,-3.4
458.2981,-3.87
458.3981,-2.83
458.4981,-0.85
458.5981,-1.23
458.6981,-1.8
458.7981,-3.68
458.8981,-3.49
458.9981,-2.08
459.0981,0.18
459.1981,1.59
459.2981,2.06
459.3981,2.91
459.4981,-0.01
459.5981,-0.01
459.6981,0.84
459.7981,0.84
459.8981,1.12
459.9981,0.65
460.0981,-0.76
460.1981,-2.08
460.2981,-5.47
460.3981,-9.51
460.4981,-13.94
460.5981,-12.9
460.6981,-9.98
460.7981,-9.04
460.8981,-8.2
460.9981,-8.57
461.0981,-12.24
461.1981,-10.93
461.2981,-4.81
461.3981,-1.7
461.4981,0.65
461.5981,1.03
461.6981,1.59
461.7981,1.97
461.8981,2.25
461.9981,1.59
462.0981,1.31
462.1981,-0.67
462.2981,-1.98
462.3981,-3.21
462.4981,-2.83
462.5981,-1.8
462.6981,-1.04
462.7981,-0.85
462.8981,-1.98
462.9981,-2.36
463.0981,-5.0
463.1981,-5.28
463.2981,-5.75
463.3981,-6.22
463.4981,-9.98
463.5981,-13.47
463.6981,-9.8
463.7981,-5.94
463.8981,-4.24
463.9981,-2.93
464.0981,-0.85
464.1981,0.56
464.2981,1.22
464.3981,2.91
464.4981,4.04
464.5981,4.79
464.6981,4.6
464.7981,4.32
464.8981,3.94
464.9981,3.19
465.0981,1.97
465.1981,0.56
465.2981,-0.01
465.3981,0.09
465.4981,-1.04
465.5981,-2.83
465.6981,-7.16
465.7981,-15.07
465.8981,-15.73
465.9981,-9.7
466.0981,-7.63
466.1981,-6.41
466.2981,-7.54
466.3981,-10.08
466.4981,-8.95
466.5981,-6.03
466.6981,-6.6
466.7981,-8.57
466.8981,-11.21
466.9981,-13.56
467.0981,-16.29
467.1981,-12.43
467.2981,-6.41
467.3981,-2.74
467.4981,-0.95
467.5981,0.74
467.6981,1.87
467.7981,3.1
467.8981,3.66
467.9981,2.72
468.0981,2.91
468.1981,2.53
468.2981,1.97
468.3981,-0.2
468.4981,-1.61
468.5981,-4.81
468.6981,-7.07
468.7981,-8.2
468.8981,-11.11
468.9981,-11.4
469.0981,-7.54
469.1981,-3.96
469.2981,-1.61
469.3981,0.27
469.4981,0.27
469.5981,0.18
469.6981,-0.2
469.7981,-0.2
469.8981,-0.01
469.9981,0.93
470.0981,0.84
470.1981,0.84
470.2981,-1.51
470.3981,-3.3
470.4981,-4.15
470.5981,-2.17
470.6981,-1.04
470.7981,-0.01
470.8981,1.03
470.9981,0.46
471.0981,-1.14
471.1981,-1.51
471.2981,-1.98
471.3981,-1.51
471.4981,-2.27
471.5981,-2.64
471.6981,-4.62
471.7981,-6.5
471.8981,-10.08
471.9981,-10.55
472.0981,-6.69
472.1981,-5.0
472.2981,-3.4
472.3981,-1.14
472.4981,0.37
472.5981,0.18
472.6981,0.37
472.7981,-1.33
472.8981,-4.15
472.9981,-8.57
473.0981,-10.93
473.1981,-8.38
473.2981,-4.62
473.3981,-2.36
473.4981,-1.51
473.5981,-1.7
473.6981,-3.77
473.7981,-6.6
473.8981,-7.91
473.9981,-5.94
474.0981,-4.53
474.1981,-4.43
474.2981,-4.34
474.3981,-7.16
474.4981,-10.64
474.5981,-12.24
474.6981,-9.51
474.7981,-8.67
474.8981,-9.42
474.9981,-9.98
475.0981,-13.56
475.1981,-10.17
475.2981,-4.34
475.3981,-1.42
475.4981,1.5
475.5981,1.5
475.6981,2.72
475.7981,1.59
475.8981,2.16
475.9981,3.29
476.0981,3.19
476.1981,3.66
476.2981,3.57
476.3981,3.29
476.4981,2.34
476.5981,0.84
476.6981,-1.23
476.7981,-3.77
476.8981,-3.77
476.9981,-5.84
477.0981,-9.51
477.1981,-14.88
477.2981,-13.09
477.3981,-8.85
477.4981,-5.75
477.5981,-4.81
477.6981,-6.13
477.7981,-5.0
477.8981,-4.15
477.9981,-3.11
478.0981,-2.45
478.1981,-2.93
478.2981,-2.17
478.3981,-1.8
478.4981,-2.45
478.5981,-2.27
478.6981,-2.36
478.7981,-3.49
478.8981,-5.37
478.9981,-10.27
479.0981,-11.11
479.1981,-6.69
479.2981,-3.96
479.3981,-0.76
479.4981,0.74
479.5981,1.03
479.6981,1.5
479.7981,0.56
479.8981,-0.48
479.9981,-3.77
480.0981,-6.6
480.1981,-9.14
480.2981,-11.3
480.3981,-10.27
480.4981,-5.75
480.5981,-3.21
480.6981,-0.48
480.7981,0.93
480.8981,1.4
480.9981,1.59
481.0981,1.87
481.1981,1.59
481.2981,2.06
481.3981,1.87
481.4981,1.22
481.5981,0.46
481.6981,0.18
481.7981,0.56
481.8981,0.46
481.9981,-0.01
482.0981,-1.33
482.1981,-1.89
482.2981,-3.02
482.3981,-2.55
482.4981,-2.08
482.5981,-2.08
482.6981,-1.8
482.7981,-2.45
482.8981,-3.77
482.9981,-4.62
483.0981,-6.69
483.1981,-9.14
483.2981,-10.27
483.3981,-8.1
483.4981,-5.47
483.5981,-3.11
483.6981,-3.49
483.7981,-3.02
483.8981,-2.27
483.9981,-0.57
484.0981,1.22
484.1981,2.91
484.2981,4.42
484.3981,4.7
484.4981,3.66
484.5981,1.22
484.6981,-0.67
484.7981,-4.34
484.8981,-8.76
484.9981,-13.65
485.0981,-11.58
485.1981,-8.01
485.2981,-6.13
485.3981,-7.73
485.4981,-13.47
485.5981,-28.43
485.6981,-12.81
485.7981,-10.36
485.8981,-10.17
485.9981,-10.55
486.0981,-10.27
486.1981,-9.98
486.2981,-7.73
486.3981,-5.0
486.4981,-4.62
486.5981,-3.77
486.6981,-4.53
486.7981,-3.68
486.8981,-0.85
486.9981,1.22
487.0981,0.93
487.1981,2.53
487.2981,1.69
487.3981,2.25
487.4981,3.66
487.5981,3.57
487.6981,5.36
487.7981,3.47
487.8981,3.47
487.9981,0.56
488.0981,1.03
488.1981,-0.01
488.2981,-0.67
488.3981,-2.27
488.4981,-3.77
488.5981,-6.97
488.6981,-7.82
488.7981,-8.2
488.8981,-7.25
488.9981,-4.43
489.0981,-3.49
489.1981,-2.27
489.2981,-2.93
489.3981,-2.45
489.4981,-1.14
489.5981,-0.48
489.6981,1.22
489.7981,1.22
489.8981,-0.1
489.9981,-1.23
490.0981,-3.11
490.1981,-5.0
490.2981,-2.08
490.3981,-0.76
490.4981,0.09
490.5981,-0.29
490.6981,-2.27
490.7981,-6.97
490.8981,-12.34
490.9981,-16.29
491.8981,-12.43
491.9981,-16.01
492.0981,-11.96
492.1981,-8.67
492.2981,-6.41
492.3981,-4.81
492.4981,-6.6
492.5981,-9.04
492.6981,-12.15
492.7981,-11.68
492.8981,-8.76
492.9981,-5.84
493.0981,-4.05
493.1981,-2.17
493.2981,-0.57
493.3981,-0.57
493.4981,1.12
493.5981,0.93
493.6981,1.78
493.7981,1.4
493.8981,-0.01
493.9981,0.74
494.0981,0.93
494.1981,0.18
494.2981,-1.51
494.3981,-3.21
494.4981,-6.22
494.5981,-9.14
494.6981,-8.38
494.7981,-7.16
494.8981,-6.69
494.9981,-5.75
495.0981,-9.04
495.1981,-9.89
495.2981,-10.93
495.3981,-8.95
495.4981,-6.78
495.5981,-8.1
495.6981,-11.49
495.7981,-20.9
495.8981,-13.0
495.9981,-7.07
496.0981,-4.15
496.1981,-1.04
496.2981,-1.04
496.3981,-0.01
496.4981,0.27
496.5981,1.87
496.6981,1.87
496.7981,1.78
496.8981,2.53
496.9981,3.29
497.0981,2.06
497.1981,1.87
497.2981,2.06
497.3981,-0.2
497.4981,-3.02
497.5981,-5.75
497.6981,-9.04
497.7981,-14.41
497.8981,-22.41
497.9981,-24.29
498.0981,-17.7
498.1981,-11.87
498.2981,-6.69
498.3981,-5.37
498.4981,-3.49
498.5981,-2.74
498.6981,-2.93
498.7981,-1.61
498.8981,-1.7
498.9981,-2.36
499.0981,-3.49
499.1981,-2.83
499.2981,-1.8
499.3981,-1.98
499.4981,-0.1
499.5981,0.65
499.6981,0.27
499.7981,-0.2
499.8981,0.09
499.9981,0.65
500.0981,0.84
500.1981,1.87
500.2981,1.87
500.3981,1.31
500.4981,1.22
500.5981,0.27
500.6981,-1.51
500.7981,-4.71
500.8981,-7.73
500.9981,-9.42
501.0981,-9.33
501.1981,-8.2
501.2981,-4.81
501.3981,-2.17
501.4981,0.37
501.5981,2.06
501.6981,3.38
501.7981,3.0
501.8981,2.72
501.9981,1.69
502.0981,2.63
502.1981,1.78
502.2981,0.84
502.3981,0.46
502.4981,-0.85
502.5981,-0.57
502.6981,-1.04
502.7981,-1.51
502.8981,-2.45
502.9981,-1.89
503.0981,-1.33
503.1981,-3.96
503.2981,-3.77
503.3981,-3.87
503.4981,-3.96
503.5981,-5.28
503.6981,-8.48
503.7981,-13.37
503.8981,-20.05
503.9981,-19.21
504.0981,-13.65
504.1981,-9.33
504.2981,-6.31
504.3981,-3.02
504.4981,-1.04
504.5981,-0.48
504.6981,1.59
504.7981,2.53
504.8981,4.23
504.9981,4.23
505.0981,4.98
505.1981,4.51
505.2981,3.1
505.3981,2.63
505.4981,1.97
505.5981,1.59
505.6981,1.4
505.7981,1.59
505.8981,0.09
505.9981,-1.8
506.0981,-4.81
506.1981,-11.11
506.2981,-17.89
506.3981,-10.55
506.4981,-8.67
506.5981,-8.48
506.6981,-11.11
506.7981,-15.54
506.8981,-20.43
506.9981,-18.17
507.0981,-12.62
507.1981,-8.48
507.2981,-8.76
507.3981,-8.76
507.4981,-6.69
507.5981,-3.21
507.6981,-0.57
507.7981,0.84
507.8981,2.44
507.9981,2.82
508.0981,4.32
508.1981,3.47
508.2981,2.82
508.3981,3.0
508.4981,3.47
508.5981,3.76
508.6981,2.53
508.7981,3.0
508.8981,0.74
508.9981,-0.1
509.0981,-1.42
509.1981,-2.08
509.2981,-3.96
509.3981,-8.2
509.4981,-11.49
509.5981,-12.15
509.6981,-12.62
509.7981,-16.48
509.8981,-19.58
509.9981,-16.85
510.0981,-12.15
510.1981,-7.82
510.2981,-4.9
510.3981,-3.49
510.4981,-2.74
510.5981,-2.36
510.6981,-4.62
510.7981,-5.56
510.8981,-5.09
510.9981,-3.21
511.0981,-1.61
511.1981,-0.01
511.2981,-0.01
511.3981,0.27
511.4981,1.4
511.5981,-0.2
511.6981,-0.01
511.7981,-0.2
511.8981,-1.14
511.9981,-1.04
512.0981,-2.08
512.1981,-4.24
512.2981,-7.35
512.3981,-9.89
512.4981,-13.75
512.5981,-13.18
512.6981,-9.51
512.7981,-6.22
512.8981,-2.83
512.9981,-2.08
513.0981,-0.48
513.1981,0.84
513.2981,0.74
513.3981,1.31
513.4981,0.18
513.5981,0.74
513.6981,-0.1
513.7981,-0.2
513.8981,-0.38
513.9981,-0.85
514.0981,-2.45
514.1981,-4.34
514.2981,-7.07
514.3981,-9.98
514.4981,-11.49
514.5981,-11.21
514.6981,-8.76
514.7981,-9.04
514.8981,-9.23
514.9981,-9.42
515.0981,-12.34
515.1981,-12.15
515.2981,-12.62
515.3981,-15.82
515.4981,-30.22
515.5981,-19.68
515.6981,-15.82
515.7981,-18.27
515.8981,-17.04
515.9981,-11.4
516.0981,-6.6
516.1981,-2.64
516.2981,-1.04
516.3981,0.65
516.4981,2.44
516.5981,1.97
516.6981,2.63
516.7981,2.53
516.8981,1.31
516.9981,1.4
517.0981,0.84
517.1981,-0.67
517.2981,-2.17
517.3981,-3.68
517.4981,-4.81
517.5981,-8.1
517.6981,-12.34
517.7981,-16.38
517.8981,-16.95
517.9981,-11.49
518.0981,-7.91
518.1981,-6.03
518.2981,-4.62
518.3981,-3.96
518.4981,-2.64
518.5981,-3.02
518.6981,-3.4
518.7981,-6.22
518.8981,-7.16
518.9981,-5.09
519.0981,-3.49
519.1981,-1.51
519.2981,-1.42
519.3981,-1.04
519.4981,-1.89
519.5981,-1.14
519.6981,-1.8
519.7981,-1.14
519.8981,-0.95
519.9981,-0.57
520.0981,0.37
520.1981,0.46
520.2981,-0.95
520.3981,-0.38
520.4981,-0.48
520.5981,-1.42
520.6981,-1.51
520.7981,-1.61
520.8981,-1.42
520.9981,-0.29
521.0981,1.22
521.1981,0.84
521.2981,1.12
521.3981,1.22
521.4981,0.65
521.5981,-1.04
521.6981,-5.28
521.7981,-10.27
521.8981,-9.8
521.9981,-5.09
522.0981,-2.83
522.1981,-1.14
522.2981,-1.23
522.3981,-0.29
522.4981,-0.2
522.5981,-0.57
522.6981,0.09
522.7981,-1.04
522.8981,-1.42
522.9981,-1.42
523.0981,-1.98
523.1981,-3.02
523.2981,-3.21
523.3981,-3.68
523.4981,-4.62
523.5981,-4.9
523.6981,-6.03
523.7981,-7.44
523.8981,-6.41
523.9981,-4.9
524.0981,-3.96
524.1981,-1.23
524.2981,-0.57
524.3981,2.34
524.4981,2.82
524.5981,2.72
524.6981,4.32
524.7981,3.66
524.8981,3.47
524.9981,3.29
525.0981,3.85
525.1981,2.82
525.2981,3.38
525.3981,3.85
525.4981,2.06
525.5981,2.25
525.6981,0.37
525.7981,-2.55
525.8981,-5.0
525.9981,-8.57
526.0981,-8.38
526.1981,-7.16
526.2981,-8.1
526.3981,-9.33
526.4981,-15.44
526.5981,-19.11
526.6981,-16.38
526.7981,-16.38
526.8981,-21.09
526.9981,-28.24
527.0981,-16.85
527.1981,-10.08
527.2981,-5.56
527.3981,-3.77
527.4981,-3.87
527.5981,-6.31
527.6981,-9.7
527.7981,-12.05
527.8981,-8.29
527.9981,-3.87
528.0981,-0.76
528.1981,1.97
528.2981,3.76
528.3981,3.76
528.4981,2.91
528.5981,2.63
528.6981,0.09
528.7981,-0.85
528.8981,-1.61
528.9981,-2.83
529.0981,-5.18
529.1981,-6.78
529.2981,-10.27
529.3981,-10.36
529.4981,-7.73
529.5981,-6.97
529.6981,-5.84
529.7981,-4.9
529.8981,-4.05
529.9981,-4.81
530.0981,-4.71
530.1981,-6.97
530.2981,-7.16
530.3981,-7.73
530.4981,-8.48
530.5981,-9.61
530.6981,-9.14
530.7981,-6.69
530.8981,-5.94
530.9981,-4.34
531.0981,-3.77
531.1981,-1.98
531.2981,-0.48
531.3981,-0.01
531.4981,0.56
531.5981,0.09
531.6981,0.09
531.7981,-1.8
531.8981,-4.34
531.9981,-7.07
532.0981,-9.8
532.1981,-13.09
532.2981,-17.8
532.3981,-17.7
532.4981,-10.64
532.5981,-5.56
532.6981,-3.02
532.7981,-0.1
532.8981,1.31
532.9981,0.93
533.0981,0.84
533.1981,0.09
533.2981,-1.23
533.3981,-2.93
533.4981,-4.05
533.5981,-6.69
533.6981,-12.34
533.7981,-15.16
533.8981,-11.21
533.9981,-9.98
534.0981,-10.45
534.1981,-14.97
534.2981,-25.23
534.3981,-20.62
534.4981,-16.76
534.5981,-14.78
534.6981,-13.65
534.7981,-13.0
534.8981,-11.87
534.9981,-10.55
535.0981,-10.83
535.1981,-13.18
535.2981,-16.57
535.3981,-12.05
535.4981,-6.78
535.5981,-3.3
535.6981,-1.42
535.7981,0.56
535.8981,0.27
535.9981,1.59
536.0981,1.5
536.1981,2.72
536.2981,3.66
536.3981,3.66
536.4981,3.66
536.5981,4.13
536.6981,3.76
536.7981,2.72
536.8981,2.63
536.9981,2.06
537.0981,1.31
537.1981,0.37
537.2981,-1.89
537.3981,-2.93
537.4981,-4.9
537.5981,-6.69
537.6981,-7.73
537.7981,-7.16
537.8981,-5.94
537.9981,-4.81
538.0981,-3.68
538.1981,-3.4
538.2981,-3.4
538.3981,-2.36
538.4981,-4.05
538.5981,-6.22
538.6981,-5.94
538.7981,-3.68
538.8981,-1.42
538.9981,-0.85
539.0981,-0.01
539.1981,1.12
539.2981,1.31
539.3981,-0.38
539.4981,-2.36
539.5981,-5.56
539.6981,-9.51
539.7981,-8.67
539.8981,-3.87
539.9981,-1.04
540.0981,0.27
540.1981,0.18
540.2981,0.09
540.3981,0.09
540.4981,-0.95
540.5981,-0.1
540.6981,-0.67
540.7981,-0.57
540.8981,-0.38
540.9981,-0.48
541.0981,0.18
541.1981,-0.57
541.2981,-0.29
541.3981,-0.85
541.4981,0.18
541.5981,0.46
541.6981,1.59
541.7981,1.69
541.8981,-0.1
541.9981,-0.01
542.0981,-1.33
542.1981,-2.74
542.2981,-3.02
542.3981,-2.36
542.4981,-1.33
542.5981,0.46
542.6981,1.12
542.7981,-0.95
542.8981,-1.8
542.9981,-2.64
543.0981,-2.93
543.1981,-2.55
543.2981,-1.8
543.3981,-2.27
543.4981,-2.17
543.5981,-2.45
543.6981,-3.49
543.7981,-3.11
543.8981,-2.55
543.9981,-1.98
544.0981,-0.38
544.1981,0.56
544.2981,1.78
544.3981,2.34
544.4981,2.16
544.5981,2.82
544.6981,2.63
544.7981,3.94
544.8981,3.85
544.9981,2.63
545.0981,2.72
545.1981,1.4
545.2981,-0.67
545.3981,-2.36
545.4981,-7.35
545.5981,-13.0
545.6981,-17.61
545.7981,-14.88
545.8981,-11.77
545.9981,-11.11
546.0981,-10.74
546.1981,-12.34
546.2981,-13.18
546.3981,-10.45
546.4981,-8.29
546.5981,-8.57
546.6981,-8.1
546.7981,-10.45
546.8981,-10.17
546.9981,-7.35
547.0981,-5.94
547.1981,-5.09
547.2981,-4.43
547.3981,-5.18
547.4981,-3.77
547.5981,-1.14
547.6981,1.87
547.7981,3.57
547.8981,4.13
547.9981,4.04
548.0981,3.85
548.1981,3.38
548.2981,2.06
548.3981,0.46
548.4981,-0.76
548.5981,-2.08
548.6981,-1.04
548.7981,-1.89
548.8981,-3.21
548.9981,-4.62
549.0981,-6.5
549.1981,-11.21
549.2981,-9.8
549.3981,-5.37
549.4981,-4.53
549.5981,-5.37
549.6981,-4.71
549.7981,-5.75
549.8981,-7.35
549.9981,-7.54
550.0981,-6.5
550.1981,-5.94
550.2981,-5.56
550.3981,-7.44
550.4981,-9.42
550.5981,-10.45
550.6981,-10.36
550.7981,-8.76
550.8981,-6.41
550.9981,-3.3
551.0981,-0.95
551.1981,-1.23
551.2981,-3.02
551.3981,-4.71
551.4981,-7.91
551.5981,-14.31
551.6981,-18.17
551.7981,-15.44
551.8981,-12.71
551.9981,-12.24
552.0981,-13.09
552.1981,-13.56
552.2981,-11.21
552.3981,-6.41
552.4981,-2.45
552.5981,-0.85
552.6981,0.09
552.7981,0.84
552.8981,1.22
552.9981,1.4
553.0981,0.84
553.1981,1.12
553.2981,2.34
553.3981,2.72
553.4981,3.29
553.5981,2.63
553.6981,1.31
553.7981,-2.17
553.8981,-4.81
553.9981,-9.42
554.0981,-10.45
554.1981,-9.51
554.2981,-10.36
554.3981,-12.05
554.4981,-18.17
554.5981,-23.82
554.6981,-19.3
554.7981,-17.14
554.8981,-17.7
554.9981,-20.9
555.0981,-27.02
555.1981,-16.48
555.2981,-9.89
555.3981,-6.88
555.4981,-3.21
555.5981,-0.85
555.6981,0.09
555.7981,1.03
555.8981,2.16
555.9981,3.57
556.0981,2.82
556.1981,4.42
556.2981,4.42
556.3981,3.29
556.4981,3.38
556.5981,3.57
556.6981,5.07
556.7981,4.98
556.8981,3.85
556.9981,2.82
557.0981,2.16
557.1981,-0.67
557.2981,-4.71
557.3981,-9.89
557.4981,-16.85
557.5981,-23.35
557.6981,-22.22
557.7981,-15.25
557.8981,-9.61
557.9981,-7.54
558.0981,-4.43
558.1981,-3.68
558.2981,-4.34
558.3981,-5.37
558.4981,-5.47
558.5981,-5.94
558.6981,-4.34
558.7981,-1.33
558.8981,-1.14
558.9981,0.56
559.0981,1.03
559.1981,1.4
559.2981,1.69
559.3981,3.0
559.4981,4.04
559.5981,4.04
559.6981,4.42
559.7981,4.42
559.8981,3.38
559.9981,3.76
560.0981,2.72
560.1981,2.16
560.2981,2.72
560.3981,1.5
560.4981,0.74
560.5981,0.37
560.6981,-0.1
560.7981,-1.04
560.8981,-2.08
560.9981,-2.64
561.0981,-0.67
561.1981,0.18
561.2981,0.09
561.3981,2.44
561.4981,2.72
561.5981,2.06
561.6981,1.12
561.7981,-1.98
561.8981,-2.64
561.9981,-2.64
562.0981,-1.8
562.1981,-0.2
562.2981,0.84
562.3981,1.03
562.4981,-0.1
562.5981,-0.1
562.6981,-1.61
562.7981,-0.38
562.8981,0.37
562.9981,0.84
563.0981,2.06
563.1981,1.69
563.2981,-0.57
563.3981,-3.58
563.4981,-8.67
563.5981,-14.41
563.6981,-13.09
563.7981,-8.48
563.8981,-5.75
563.9981,-2.93
564.0981,0.37
564.1981,1.03
564.2981,2.53
564.3981,3.1
564.4981,3.47
564.5981,3.38
564.6981,3.29
564.7981,3.94
564.8981,2.25
564.9981,2.25
565.0981,0.65
565.1981,0.09
565.2981,-0.01
565.3981,-0.38
565.4981,-1.23
565.5981,-2.08
565.6981,-3.77
565.7981,-5.94
565.8981,-7.44
565.9981,-5.0
566.0981,-2.83
566.1981,-1.61
566.2981,-0.48
566.3981,-0.01
566.4981,-0.95
566.5981,-2.36
566.6981,-5.75
566.7981,-9.8
566.8981,-14.31
566.9981,-16.1
567.0981,-16.1
567.1981,-12.05
567.2981,-6.6
567.3981,-1.7
567.4981,0.46
567.5981,2.16
567.6981,2.82
567.7981,4.04
567.8981,3.47
567.9981,2.25
568.0981,0.37
568.1981,-1.04
568.2981,-0.85
568.3981,-0.1
568.4981,0.56
568.5981,-1.14
568.6981,-2.93
568.7981,-7.35
568.8981,-12.62
568.9981,-11.58
569.0981,-9.14
569.1981,-6.97
569.2981,-7.91
569.3981,-10.36
569.4981,-15.82
569.5981,-18.08
569.6981,-12.15
569.7981,-8.2
569.8981,-6.22
569.9981,-4.53
570.0981,-4.71
570.1981,-6.22
570.2981,-9.98
570.3981,-10.64
570.4981,-8.38
570.5981,-5.28
570.6981,-4.62
570.7981,-3.21
570.8981,-1.61
570.9981,-1.89
571.0981,-0.48
571.1981,-0.38
571.2981,-1.61
571.3981,-2.36
571.4981,-3.4
571.5981,-4.43
571.6981,-5.18
571.7981,-7.07
571.8981,-9.61
571.9981,-9.23
572.0981,-7.07
572.1981,-3.68
572.2981,-1.04
572.3981,0.18
572.4981,1.22
572.5981,1.5
572.6981,1.5
572.7981,2.06
572.8981,2.91
572.9981,2.82
573.0981,3.47
573.1981,2.72
573.2981,2.53
573.3981,3.1
573.4981,1.87
573.5981,-0.01
573.6981,-2.27
573.7981,-4.43
573.8981,-4.71
573.9981,-4.43
574.0981,-4.9
574.1981,-6.5
574.2981,-8.85
574.3981,-12.43
574.4981,-12.15
574.5981,-11.68
574.6981,-12.9
574.7981,-13.37
574.8981,-13.37
574.9981,-9.89
575.0981,-7.91
575.1981,-8.76
575.2981,-8.57
575.3981,-9.61
575.4981,-11.21
575.5981,-10.17
575.6981,-4.34
575.7981,-0.01
575.8981,2.91
575.9981,4.32
576.0981,4.6
576.1981,4.51
576.2981,4.51
576.3981,5.45
576.4981,4.98
576.5981,5.54
576.6981,6.58
576.7981,4.7
576.8981,3.76
576.9981,2.16
577.0981,-1.33
577.1981,-3.96
577.2981,-7.63
577.3981,-8.38
577.4981,-8.1
577.5981,-7.54
577.6981,-6.88
577.7981,-4.05
577.8981,-3.58
577.9981,-3.4
578.0981,-3.77
578.1981,-4.81
578.2981,-5.37
578.3981,-3.11
578.4981,-0.85
578.5981,1.12
578.6981,1.78
578.7981,3.29
578.8981,4.79
578.9981,4.51
579.0981,4.7
579.1981,4.7
579.2981,5.17
579.3981,5.17
579.4981,6.02
579.5981,5.64
579.6981,5.92
579.7981,5.64
579.8981,5.73
579.9981,4.23
580.0981,3.94
580.1981,2.72
580.2981,1.4
580.3981,-0.38
580.4981,-2.64
580.5981,-3.4
580.6981,-2.93
580.7981,-2.27
580.8981,-0.95
580.9981,-0.2
581.0981,0.56
581.1981,-0.38
581.2981,-2.74
581.3981,-7.35
581.4981,-13.37
581.5981,-12.71
581.6981,-7.07
581.7981,-2.74
581.8981,0.93
581.9981,2.72
582.0981,3.47
582.1981,3.29
582.2981,1.87
582.3981,1.31
582.4981,3.29
582.5981,3.19
582.6981,5.17
582.7981,5.64
582.8981,5.26
582.9981,5.45
583.0981,3.57
583.1981,2.44
583.2981,-0.01
583.3981,-1.04
583.4981,-2.83
583.5981,-3.02
583.6981,-3.21
583.7981,-2.64
583.8981,-0.76
583.9981,0.84
584.0981,1.97
584.1981,2.44
584.2981,3.19
584.3981,3.19
584.4981,2.72
584.5981,2.25
584.6981,3.1
584.7981,1.97
584.8981,2.25
584.9981,2.16
585.0981,1.12
585.1981,1.5
585.2981,0.18
585.3981,-1.42
585.4981,-2.83
585.5981,-2.74
585.6981,-1.8
585.7981,-0.76
585.8981,0.18
585.9981,1.03
586.0981,1.5
586.1981,0.56
586.2981,-0.85
586.3981,-3.21
586.4981,-4.34
586.5981,-5.56
586.6981,-7.16
586.7981,-11.49
586.8981,-21.0
586.9981,-16.1
587.0981,-9.33
587.1981,-6.5
587.2981,-6.31
587.3981,-9.23
587.4981,-11.87
587.5981,-8.01
587.6981,-4.05
587.7981,-0.85
587.8981,-0.1
587.9981,1.03
588.0981,2.72
588.1981,3.1
588.2981,0.65
588.3981,-1.33
588.4981,-5.65
588.5981,-13.94
588.6981,-17.23
588.7981,-8.38
588.8981,-4.05
588.9981,-2.74
589.0981,-3.02
589.1981,-1.8
589.2981,-0.57
589.3981,1.78
589.4981,2.63
589.5981,2.16
589.6981,2.34
589.7981,1.22
589.8981,-0.38
589.9981,-0.38
590.0981,-0.2
590.1981,-0.67
590.2981,-1.14
590.3981,-1.42
590.4981,-1.51
590.5981,-0.67
590.6981,0.93
590.7981,1.22
590.8981,1.22
590.9981,3.0
591.0981,1.87
591.1981,1.5
591.2981,1.12
591.3981,-0.67
591.4981,-2.64
591.5981,-3.58
591.6981,-4.71
591.7981,-5.75
591.8981,-5.56
591.9981,-2.36
592.0981,-0.85
592.1981,1.87
592.2981,2.34
592.3981,3.38
592.4981,3.19
592.5981,4.13
592.6981,4.7
592.7981,5.73
592.8981,4.23
592.9981,3.38
593.0981,1.87
593.1981,-0.01
593.2981,-3.77
593.3981,-8.38
593.4981,-10.36
593.5981,-6.97
593.6981,-6.13
593.7981,-5.09
593.8981,-3.96
593.9981,-3.58
594.0981,-2.55
594.1981,-1.89
594.2981,-2.55
594.3981,-3.87
594.4981,-6.78
594.5981,-8.95
594.6981,-12.81
594.7981,-17.23
594.8981,-16.38
594.9981,-10.17
595.0981,-5.56
595.1981,-1.23
595.2981,1.59
595.3981,4.32
595.4981,5.45
595.5981,5.45
595.6981,7.33
595.7981,7.05
595.8981,6.96
595.9981,6.86
596.0981,6.49
596.1981,7.43
596.2981,7.24
596.3981,6.96
596.4981,6.11
596.5981,5.64
596.6981,3.29
596.7981,1.12
596.8981,-0.76
596.9981,-3.21
597.0981,-3.77
597.1981,-6.03
597.2981,-8.95
597.3981,-13.28
597.4981,-12.9
597.5981,-9.04
597.6981,-7.73
597.7981,-5.56
597.8981,-6.41
597.9981,-7.25
598.0981,-5.18
598.1981,-2.93
598.2981,1.03
598.3981,2.91
598.4981,3.19
598.5981,4.32
598.6981,4.7
598.7981,4.89
598.8981,5.17
598.9981,6.02
599.0981,4.6
599.1981,3.29
599.2981,0.18
599.3981,-4.81
599.4981,-2.74
599.5981,1.78
599.6981,2.63
599.7981,3.66
599.8981,2.91
599.9981,2.34
600.0981,0.84
600.1981,-0.95
600.2981,-3.21
600.3981,-4.34
600.4981,-4.71
600.5981,-5.0
600.6981,-2.27
600.7981,-1.51
600.8981,-0.48
600.9981,-1.42
601.0981,-0.85
601.1981,-1.98
601.2981,-2.64
601.3981,-1.98
601.4981,0.93
601.5981,1.69
601.6981,1.12
601.7981,2.34
601.8981,3.29
601.9981,3.47
602.0981,3.1
602.1981,4.23
602.2981,6.2
602.3981,6.96
602.4981,7.14
602.5981,7.71
602.6981,6.67
602.7981,5.36
602.8981,4.51
602.9981,2.25
603.0981,1.31
603.1981,0.27
603.2981,-1.98
603.3981,-3.96
603.4981,-6.78
603.5981,-6.22
603.6981,-4.81
603.7981,-1.51
603.8981,-0.67
603.9981,0.27
604.0981,1.4
604.1981,1.69
604.2981,2.25
604.3981,2.72
604.4981,3.57
604.5981,3.0
604.6981,1.59
604.7981,0.74
604.8981,-0.57
604.9981,-2.08
605.0981,-3.68
605.1981,-6.22
605.2981,-10.17
605.3981,-13.37
605.4981,-8.95
605.5981,-4.24
605.6981,-1.51
605.7981,0.37
605.8981,1.4
605.9981,1.12
606.0981,0.74
606.1981,-1.04
606.2981,-2.64
606.3981,-3.3
606.4981,-7.91
606.5981,-15.35
606.6981,-11.96
606.7981,-6.13
606.8981,-2.17
606.9981,-0.29
607.0981,0.09
607.1981,2.16
607.2981,3.29
607.3981,3.29
607.4981,3.29
607.5981,4.6
607.6981,3.94
607.7981,3.76
607.8981,2.34
607.9981,-0.2
608.0981,-1.89
608.1981,-4.24
608.2981,-6.41
608.3981,-7.82
608.4981,-9.61
608.5981,-8.48
608.6981,-4.43
608.7981,-1.33
608.8981,-0.1
608.9981,1.22
609.0981,2.63
609.1981,3.0
609.2981,3.38
609.3981,2.25
609.4981,0.84
609.5981,0.56
609.6981,1.22
609.7981,1.22
609.8981,0.84
609.9981,1.22
610.0981,0.37
610.1981,-0.85
610.2981,-1.7
610.3981,0.09
610.4981,1.69
610.5981,3.38
610.6981,3.76
610.7981,2.91
610.8981,1.4
610.9981,-1.7
611.0981,-6.13
611.1981,-10.08
611.2981,-16.01
611.3981,-17.51
611.4981,-20.81
611.5981,-18.93
611.6981,-8.95
611.7981,-3.02
611.8981,0.56
611.9981,3.85
612.0981,4.98
612.1981,6.39
612.2981,6.3
612.3981,6.02
612.4981,6.58
612.5981,6.02
612.6981,6.58
612.7981,6.3
612.8981,7.05
612.9981,6.3
613.0981,4.79
613.1981,4.98
613.2981,3.19
613.3981,1.4
613.4981,0.37
613.5981,-0.95
613.6981,-0.38
613.7981,0.27
613.8981,-0.29
613.9981,-1.89
614.0981,-3.11
614.1981,-6.88
614.2981,-11.21
614.3981,-11.77
614.4981,-11.02
614.5981,-15.35
614.6981,-17.42
614.7981,-6.22
614.8981,-0.95
614.9981,2.82
615.0981,4.13
615.1981,5.45
615.2981,5.73
615.3981,7.43
615.4981,7.14
615.5981,7.62
615.6981,7.71
615.7981,8.18
615.8981,8.09
615.9981,8.84
616.0981,9.31
616.1981,8.84
616.2981,7.9
616.3981,6.49
616.4981,4.89
616.5981,3.66
616.6981,1.59
616.7981,-0.01
616.8981,-1.42
616.9981,-5.37
617.0981,-11.68
617.1981,-24.01
617.2981,-35.77
617.3981,-24.29
617.4981,-18.55
617.5981,-14.41
617.6981,-10.74
617.7981,-7.54
617.8981,-4.34
617.9981,-0.67
618.0981,1.22
618.1981,2.91
618.2981,4.51
618.3981,5.92
618.4981,6.11
618.5981,7.24
618.6981,7.8
618.7981,8.37
618.8981,9.12
618.9981,9.5
619.0981,9.4
619.1981,8.84
619.2981,8.27
619.3981,7.33
619.4981,7.05
619.5981,6.11
619.6981,4.98
619.7981,3.0
619.8981,1.12
619.9981,-1.61
620.0980999999999,-4.71
620.1981000000001,-9.51
620.2981,-14.03
620.3981,-8.38
620.4981,-4.9
620.5980999999999,-2.17
620.6981000000001,-0.38
620.7981,0.18
620.8981,0.37
620.9981,0.37
621.0980999999999,0.37
621.1981000000001,1.87
621.2981,1.31
621.3981,2.06
621.4981,2.44
621.5980999999999,2.53
621.6981000000001,4.89
621.7981,6.3
621.8981,6.3
621.9981,6.86
622.0980999999999,7.24
622.1981000000001,7.43
622.2981,6.58
622.3981,7.05
622.4981,7.43
622.5980999999999,7.71
622.6981000000001,7.33
622.7981,5.36
622.8981,2.16
622.9981,-1.33
623.0980999999999,-6.69
623.1981000000001,-15.07
623.2981,-27.02
623.3981,-31.91
623.4981,-17.14
623.5980999999999,-10.55
623.6981000000001,-5.65
623.7981,-2.17
623.8981,1.22
623.9981,2.53
624.0980999999999,3.66
624.1981000000001,4.23
624.2981,2.82
624.3981,1.87
624.4981,-0.95
624.5980999999999,-1.89
624.6981000000001,-1.42
624.7981,0.56
624.8981,0.09
624.9981,1.5
625.0980999999999,0.18
625.1981000000001,0.84
625.2981,2.16
625.3981,2.44
625.4981,3.29
625.5980999999999,4.51
625.6981000000001,4.89
625.7981,4.98
625.8981,4.89
625.9981,2.72
626.0980999999999,-0.38
626.1981000000001,-2.36
626.2981,-3.4
626.3981,-1.98
626.4981,-1.33
626.5980999999999,-1.51
626.6981000000001,-1.8
626.7981,-0.01
626.8981,0.74
626.9981,2.16
627.0980999999999,4.32
627.1981000000001,4.89
627.2981,5.92
627.3981,5.36
627.4981,4.04
627.5980999999999,3.29
627.6981000000001,0.37
627.7981,-2.83
627.8981,-4.62
627.9981,-4.62
628.0980999999999,-5.65
628.1981000000001,-7.25
628.2981,-10.55
628.3981,-4.34
628.4981,-0.29
628.5980999999999,2.91
628.6981000000001,5.07
628.7981,4.89
628.8981,4.89
628.9981,1.59
629.0980999999999,-1.8
629.1981000000001,-7.16
629.2981,-8.67
629.3981,-3.68
629.4981,-0.01
629.5980999999999,2.16
629.6981000000001,4.13
629.7981,3.19
629.8981,1.69
629.9981,2.16
630.0980999999999,2.16
630.1981000000001,4.7
630.2981,4.98
630.3981,5.45
630.4981,5.54
630.5980999999999,4.32
630.6981000000001,2.44
630.7981,0.37
630.8981,-2.64
630.9981,-4.24
631.0980999999999,-5.65
631.1981000000001,-8.48
631.2981,-11.58
631.3981,-6.97
631.4981,-1.8
631.5980999999999,2.16
631.6981000000001,4.13
631.7981,5.36
631.8981,6.86
631.9981,6.86
632.0980999999999,7.71
632.1981000000001,7.52
632.2981,7.52
632.3981,8.27
632.4981,8.09
632.5980999999999,7.43
632.6981000000001,8.27
632.7981,6.67
632.8981,6.39
632.9981,4.7
633.0980999999999,3.38
633.1981000000001,2.72
633.2981,2.63
633.3981,2.82
633.4981,2.25
633.5980999999999,1.97
633.6981000000001,2.16
633.7981,-0.01
633.8981,-1.8
633.9981,-3.58
634.0980999999999,-6.69
634.1981000000001,-10.45
634.2981,-17.98
634.3981,-16.38
634.4981,-6.03
634.5980999999999,-0.85
634.6981000000001,2.16
634.7981,3.94
634.8981,4.6
634.9981,3.47
635.0980999999999,0.74
635.1981000000001,-5.65
635.2981,-7.16
635.3981,-7.44
635.4981,-6.97
635.5980999999999,-6.97
635.6981000000001,-6.78
635.7981,-6.22
635.8981,-6.03
635.9981,-5.56
636.0980999999999,-3.4
636.1981000000001,3.0
636.2981,5.26
636.3981,3.85
636.4981,2.34
636.5980999999999,0.84
636.6981000000001,-1.14
636.7981,-3.58
636.8981,-5.37
636.9981,-8.48
637.0980999999999,-9.89
637.1981000000001,-10.74
637.2981,-11.96
637.3981,-9.7
637.4981,-6.69
637.5980999999999,-3.77
637.6981000000001,-1.33
637.7981,1.12
637.8981,5.54
637.9981,4.04
638.0980999999999,6.02
638.1981000000001,7.24
638.2981,7.9
638.3981,9.22
638.4981,9.31
638.5980999999999,9.59
638.6981000000001,9.22
638.7981,9.59
638.8981,9.5
638.9981,8.65
639.0980999999999,9.87
639.1981000000001,9.03
639.2981,7.9
639.3981,6.96
639.4981,5.26
639.5980999999999,3.19
639.6981000000001,0.74
639.7981,-3.58
639.8981,-6.88
639.9981,-8.67
640.0980999999999,-10.27
640.1981000000001,-12.53
640.2981,-8.95
640.3981,-4.53
640.4981,-0.95
640.5980999999999,0.65
640.6981000000001,0.65
640.7981,0.65
640.8981,0.46
640.9981,-0.2
641.0980999999999,2.63
641.1981000000001,4.13
641.2981,4.23
641.3981,5.36
641.4981,6.11
641.5980999999999,6.39
641.6981000000001,7.05
641.7981,6.39
641.8981,7.05
641.9981,7.05
642.0980999999999,7.33
642.1981000000001,7.99
642.2981,7.99
642.3981,7.99
642.4981,6.11
642.5980999999999,4.79
642.6981000000001,1.78
642.7981,-2.36
642.8981,-4.71
642.9981,-3.87
643.0980999999999,-2.08
643.1981000000001,-2.74
643.2981,-3.96
643.3981,-2.64
643.4981,0.84
643.5980999999999,3.1
643.6981000000001,5.83
643.7981,5.17
643.8981,5.17
643.9981,4.7
644.0980999999999,3.1
644.1981000000001,1.03
644.2981,-1.42
644.3981,0.46
644.4981,5.26
644.5980999999999,2.53
644.6981000000001,1.97
644.7981,0.37
644.8981,0.37
644.9981,1.69
645.0980999999999,4.23
645.1981000000001,5.73
645.2981,6.77
645.3981,6.3
645.4981,6.39
645.5980999999999,4.98
645.6981000000001,3.1
645.7981,2.16
645.8981,2.16
645.9981,2.44
646.0980999999999,3.29
646.1981000000001,3.19
646.2981,2.34
646.3981,1.31
646.4981,1.22
646.5980999999999,2.06
646.6981000000001,4.13
646.7981,6.3
646.8981,6.96
646.9981,6.58
647.0980999999999,6.58
647.1981000000001,5.26
647.2981,3.57
647.3981,1.4
647.4981,-0.2
647.5980999999999,-1.14
647.6981000000001,-2.17
647.7981,-3.02
647.8981,-15.73
647.9981,-10.83
648.0980999999999,-2.45
648.1981000000001,1.87
648.2981,4.13
648.3981,6.11
648.4981,7.33
648.5980999999999,6.39
648.6981000000001,7.24
648.7981,6.58
648.8981,6.49
648.9981,6.67
649.0980999999999,7.14
649.1981000000001,7.43
649.2981,7.71
649.3981,7.05
649.4981,5.36
649.5980999999999,4.51
649.6981000000001,4.13
649.7981,5.73
649.8981,6.49
649.9981,6.58
650.0980999999999,6.86
650.1981000000001,6.3
650.2981,5.36
650.3981,4.42
650.4981,3.1
650.5980999999999,1.5
650.6981000000001,-0.48
650.7981,-2.45
650.8981,-4.53
650.9981,-4.71
651.0980999999999,-2.36
651.1981000000001,-0.1
651.2981,3.0
651.3981,5.17
651.4981,5.92
651.5980999999999,7.24
651.6981000000001,7.9
651.7981,8.09
651.8981,9.22
651.9981,9.69
652.0980999999999,9.5
652.1981000000001,9.5
652.2981,9.12
652.3981,8.84
652.4981,8.37
652.5980999999999,8.09
652.6981000000001,7.33
652.7981,6.3
652.8981,5.64
652.9981,4.89
653.0980999999999,4.32
653.1981000000001,4.42
653.2981,3.85
653.3981,2.82
653.4981,2.25
653.5980999999999,0.74
653.6981000000001,-0.57
653.7981,-3.21
653.8981,-6.97
653.9981,-14.03
654.0980999999999,-13.09
654.1981000000001,-5.37
654.2981,-1.14
654.3981,4.89
654.4981,5.07
654.5980999999999,5.92
654.6981000000001,7.9
654.7981,9.12
654.8981,9.87
654.9981,10.34
655.0980999999999,10.25
655.1981000000001,10.72
655.2981,10.72
655.3981,10.63
655.4981,10.91
655.5980999999999,10.34
655.6981000000001,9.78
655.7981,9.69
655.8981,8.56
655.9981,7.8
656.0980999999999,6.67
656.1981000000001,4.51
656.2981,2.82
656.3981,1.12
656.4981,0.18
656.5980999999999,-0.57
656.6981000000001,-1.14
656.7981,-3.49
656.8981,-7.54
656.9981,-12.53
657.0980999999999,-7.91
657.1981000000001,-3.87
657.2981,-2.45
657.3981,-2.36
657.4981,-1.89
657.5980999999999,1.4
657.6981000000001,7.71
657.7981,6.39
657.8981,7.9
657.9981,9.31
658.0980999999999,10.06
658.1981000000001,9.97
658.2981,10.06
658.3981,10.34
658.4981,9.78
658.5980999999999,10.06
658.6981000000001,10.06
658.7981,10.25
658.8981,9.78
658.9981,9.12
659.0980999999999,7.9
659.1981000000001,5.83
659.2981,3.29
659.3981,0.56
659.4981,-1.89
659.5980999999999,-1.98
659.6981000000001,-1.33
659.7981,-1.98
659.8981,-3.77
659.9981,-3.3
660.0980999999999,-0.67
660.1981000000001,1.87
660.2981,3.38
660.3981,3.38
660.4981,3.19
660.5980999999999,1.78
660.6981000000001,-0.57
660.7981,0.09
660.8981,4.32
660.9981,6.67
661.0980999999999,6.67
661.1981000000001,6.67
661.2981,6.86
661.3981,7.8
661.4981,7.33
661.5980999999999,7.9
661.6981000000001,8.65
661.7981,9.12
661.8981,9.22
661.9981,8.84
662.0980999999999,8.27
662.1981000000001,7.14
662.2981,5.83
662.3981,2.91
662.4981,0.18
662.5980999999999,-0.67
662.6981000000001,0.74
662.7981,1.4
662.8981,0.65
662.9981,-0.48
663.0980999999999,-0.01
663.1981000000001,2.53
663.2981,4.6
663.3981,6.2
663.4981,6.2
663.5980999999999,6.58
663.6981000000001,5.54
663.7981,2.72
663.8981,0.65
663.9981,-0.85
664.0980999999999,-0.01
664.1981000000001,1.5
664.2981,3.38
664.3981,0.37
664.4981,-0.67
664.5980999999999,-0.1
664.6981000000001,3.0
664.7981,4.98
664.8981,6.58
664.9981,7.71
665.0980999999999,7.14
665.1981000000001,6.58
665.2981,5.54
665.3981,4.42
665.4981,4.32
665.5980999999999,5.07
665.6981000000001,5.64
665.7981,5.83
665.8981,5.07
665.9981,4.98
666.0980999999999,4.6
666.1981000000001,5.54
666.2981,6.58
666.3981,7.71
666.4981,7.99
666.5980999999999,8.37
666.6981000000001,8.18
666.7981,7.52
666.8981,6.86
666.9981,5.83
667.0980999999999,4.23
667.1981000000001,3.0
667.2981,0.46
667.3981,-2.27
667.4981,-6.88
667.5980999999999,-15.35
667.6981000000001,-4.71
667.7981,0.74
667.8981,3.85
667.9981,5.17
668.0980999999999,6.86
668.1981000000001,7.71
668.2981,8.46
668.3981,8.74
668.4981,9.03
668.5980999999999,9.12
668.6981000000001,9.4
668.7981,9.59
668.8981,9.22
668.9981,9.22
669.0980999999999,9.59
669.1981000000001,9.03
669.2981,8.18
669.3981,7.8
669.4981,8.46
669.5980999999999,8.56
669.6981000000001,8.09
669.7981,7.8
669.8981,8.18
669.9981,7.14
670.0980999999999,6.39
670.1981000000001,6.2
670.2981,5.17
670.3981,3.66
670.4981,0.93
670.5980999999999,-1.89
670.6981000000001,-5.84
670.7981,-3.02
670.8981,1.4
670.9981,2.72
671.0980999999999,4.32
671.1981000000001,5.64
671.2981,7.9
671.3981,9.22
671.4981,9.69
671.5980999999999,10.53
671.6981000000001,11.19
671.7981,10.72
671.8981,10.63
671.9981,10.44
672.0980999999999,10.53
672.1981000000001,10.44
672.2981,10.16
672.3981,10.34
672.4981,10.25
672.5980999999999,8.84
672.6981000000001,7.99
672.7981,7.05
672.8981,5.92
672.9981,6.3
673.0980999999999,6.3
673.1981000000001,6.11
673.2981,4.79
673.3981,2.91
673.4981,0.37
673.5980999999999,-4.15
673.6981000000001,-11.11
673.7981,-17.61
673.8981,-8.38
673.9981,-2.93
674.0980999999999,1.78
674.1981000000001,6.77
674.2981,6.3
674.3981,8.18
674.4981,9.59
674.5980999999999,10.72
674.6981000000001,10.91
674.7981,11.66
674.8981,11.29
674.9981,11.29
675.0980999999999,11.85
675.1981000000001,12.04
675.2981,12.32
675.3981,12.7
675.4981,11.85
675.5980999999999,11.0
675.6981000000001,9.78
675.7981,7.99
675.8981,6.96
675.9981,5.83
676.0980999999999,4.7
676.1981000000001,4.04
676.2981,3.76
676.3981,2.53
676.4981,1.03
676.5980999999999,-1.89
676.6981000000001,-6.13
676.7981,-8.85
676.8981,-6.88
676.9981,-5.0
677.0980999999999,-4.9
677.1981000000001,-4.81
677.2981,-1.04
677.3981,3.57
677.4981,9.03
677.5980999999999,8.09
677.6981000000001,8.84
677.7981,9.78
677.8981,9.97
677.9981,9.69
678.0980999999999,9.69
678.1981000000001,10.63
678.2981,10.82
678.3981,10.82
678.4981,11.19
678.5980999999999,10.91
678.6981000000001,10.91
678.7981,9.22
678.8981,7.14
678.9981,5.54
679.0980999999999,3.66
679.1981000000001,2.72
679.2981,2.63
679.3981,2.25
679.4981,0.27
679.5980999999999,-2.17
679.6981000000001,-3.4
679.7981,-1.04
679.8981,1.87
679.9981,2.34
680.0980999999999,2.72
680.1981000000001,1.4
680.2981,-1.04
680.3981,-2.08
680.4981,-0.2
680.5980999999999,2.44
680.6981000000001,6.2
680.7981,7.05
680.8981,5.92
680.9981,6.67
681.0980999999999,7.33
681.1981000000001,7.8
681.2981,8.93
681.3981,9.4
681.4981,9.5
681.5980999999999,10.25
681.6981000000001,9.78
681.7981,9.5
681.8981,8.09
681.9981,6.39
682.0980999999999,5.17
682.1981000000001,4.13
682.2981,3.76
682.3981,3.0
682.4981,2.16
682.5980999999999,1.97
682.6981000000001,3.1
682.7981,3.19
682.8981,4.6
682.9981,5.17
