Frequency(MHz),Power(dBmV/100kHz)_20260203_093443
107.8981,-17.63
107.9981,-16.03
108.0981,-10.1
108.1981,-5.87
108.2981,-3.42
108.3981,-0.03
108.4981,-0.13
108.5981,0.81
108.6981,1.85
108.7981,2.22
108.8981,2.32
108.9981,1.28
109.0981,1.85
109.1981,1.47
109.2981,0.62
109.3981,1.66
109.4981,1.0
109.5981,0.44
109.6981,1.0
109.7981,1.19
109.8981,0.53
109.9981,-0.79
110.0981,0.15
110.1981,-0.6
110.2981,-1.07
110.3981,-0.69
110.4981,-0.6
110.5981,-0.6
110.6981,-1.35
110.7981,-1.92
110.8981,-2.86
110.9981,-1.54
111.0981,-1.26
111.1981,-1.07
111.2981,-0.22
111.3981,-0.6
111.4981,0.44
111.5981,1.0
111.6981,0.72
111.7981,1.57
111.8981,2.22
111.9981,1.66
112.0981,1.94
112.1981,2.6
112.2981,2.41
112.3981,2.41
112.4981,2.41
112.5981,2.79
112.6981,2.51
112.7981,2.69
112.8981,2.13
112.9981,1.19
113.0981,1.28
113.1981,0.34
113.2981,0.91
113.3981,1.09
113.4981,-0.69
113.5981,-2.29
113.6981,-3.33
113.7981,-6.81
113.8981,-11.8
113.9981,-12.74
114.0981,-7.94
114.1981,-5.78
114.2981,-4.36
114.3981,-3.23
114.4981,-1.16
114.5981,-0.79
114.6981,-1.63
114.7981,-0.13
114.8981,-0.51
114.9981,-0.69
115.0981,0.72
115.1981,1.66
115.2981,0.81
115.3981,1.66
115.4981,1.66
115.5981,1.0
115.6981,0.91
115.7981,0.34
115.8981,0.25
115.9981,-0.03
116.0981,1.57
116.1981,1.47
116.2981,2.22
116.3981,0.91
116.4981,2.13
116.5981,2.04
116.6981,1.66
116.7981,2.41
116.8981,2.22
116.9981,2.41
117.0981,2.13
117.1981,1.09
117.2981,1.0
117.3981,0.44
117.4981,0.34
117.5981,0.06
117.6981,0.15
117.7981,0.15
117.8981,-0.32
117.9981,-0.41
118.0981,-0.22
118.1981,1.28
118.2981,-0.03
118.3981,1.28
118.4981,-0.13
118.5981,0.81
118.6981,0.44
118.7981,0.34
118.8981,0.91
118.9981,1.38
119.0981,1.47
119.1981,0.44
119.2981,1.09
119.3981,1.0
119.4981,-0.41
119.5981,-2.1
119.6981,-4.93
119.7981,-8.32
119.8981,-13.78
119.9981,-16.79
120.0981,-18.39
120.1981,-19.61
120.2981,-19.7
120.3981,-19.89
120.4981,-20.18
120.5981,-21.59
120.6981,-24.6
120.7981,-24.79
120.8981,-25.07
120.9981,-25.07
121.0981,-25.07
121.1981,-25.26
121.2981,-25.26
121.3981,-25.16
121.4981,-25.35
121.5981,-25.26
121.6981,-25.16
121.7981,-25.26
121.8981,-25.16
121.9981,-25.07
122.0981,-25.26
122.1981,-25.35
122.2981,-25.54
122.3981,-25.82
122.4981,-25.82
122.5981,-26.1
122.6981,-26.01
122.7981,-26.1
122.8981,-25.54
122.9981,-25.45
123.0981,-25.16
123.1981,-25.07
123.2981,-24.98
123.3981,-24.88
123.4981,-25.35
123.5981,-25.35
123.6981,-25.73
123.7981,-26.01
123.8981,-26.2
123.9981,-26.48
124.0981,-26.76
124.1981,-26.86
124.2981,-26.86
124.3981,-26.58
124.4981,-26.29
124.5981,-26.01
124.6981,-25.73
124.7981,-25.35
124.8981,-24.98
124.9981,-24.79
125.0981,-24.69
125.1981,-21.96
125.2981,-19.99
125.3981,-19.99
125.4981,-19.33
125.5981,-19.23
125.6981,-18.67
125.7981,-16.5
125.8981,-15.19
125.9981,-9.26
126.0981,-4.83
126.1981,-2.01
126.2981,0.53
126.3981,1.09
126.4981,0.81
126.5981,0.44
126.6981,0.25
126.7981,-1.16
126.8981,-0.88
126.9981,-0.32
127.0981,-1.26
127.1981,-1.26
127.2981,-0.32
127.3981,-1.73
127.4981,-1.73
127.5981,-1.26
127.6981,-0.69
127.7981,-0.41
127.8981,-0.79
127.9981,0.25
128.0981,0.25
128.1981,0.81
128.2981,1.57
128.3981,0.72
128.4981,1.19
128.5981,1.38
128.6981,1.0
128.7981,0.72
128.8981,1.57
128.9981,0.72
129.0981,0.72
129.1981,0.53
129.2981,0.34
129.3981,0.81
129.4981,1.28
129.5981,0.91
129.6981,1.85
129.7981,2.04
129.8981,2.6
129.9981,2.69
130.0981,1.85
130.1981,1.94
130.2981,1.94
130.3981,1.0
130.4981,0.25
130.5981,-0.13
130.6981,-0.32
130.7981,-1.26
130.8981,-1.63
130.9981,-0.22
131.0981,0.15
131.1981,-0.51
131.2981,-0.03
131.3981,-1.26
131.4981,-2.39
131.5981,-4.27
131.6981,-6.9
131.7981,-12.74
131.8981,-14.81
131.9981,-9.92
132.0981,-7.0
132.1981,-3.8
132.2981,-1.35
132.3981,-0.51
132.4981,0.15
132.5981,0.72
132.6981,1.38
132.7981,2.6
132.8981,1.75
132.9981,1.47
133.0981,1.66
133.1981,1.28
133.2981,1.28
133.3981,1.19
133.4981,1.09
133.5981,0.81
133.6981,0.53
133.7981,1.0
133.8981,1.38
133.9981,0.62
134.0981,1.0
134.1981,0.15
134.2981,0.25
134.3981,0.15
134.4981,-0.03
134.5981,-0.51
134.6981,-0.88
134.7981,-0.88
134.8981,0.06
134.9981,-0.6
135.0981,-0.41
135.1981,-0.79
135.2981,-1.26
135.3981,-0.79
135.4981,-0.6
135.5981,-1.63
135.6981,-0.79
135.7981,-1.16
135.8981,-1.82
135.9981,-1.54
136.0981,-0.22
136.1981,-0.22
136.2981,0.44
136.3981,0.15
136.4981,0.44
136.5981,0.25
136.6981,1.28
136.7981,1.38
136.8981,1.57
136.9981,0.81
137.0981,1.19
137.1981,0.91
137.2981,1.19
137.3981,-1.26
137.4981,-2.67
137.5981,-4.36
137.6981,-8.41
137.7981,-11.99
137.8981,-11.23
137.9981,-7.56
138.0981,-4.46
138.1981,-2.2
138.2981,-0.13
138.3981,-0.32
138.4981,-0.22
138.5981,-1.54
138.6981,-1.07
138.7981,-1.16
138.8981,-1.35
138.9981,-0.03
139.0981,-0.79
139.1981,-0.69
139.2981,-0.13
139.3981,0.81
139.4981,0.15
139.5981,0.34
139.6981,0.53
139.7981,0.62
139.8981,-0.03
139.9981,1.0
140.0981,0.53
140.1981,0.44
140.2981,0.15
140.3981,-0.51
140.4981,-0.22
140.5981,-0.13
140.6981,-0.03
140.7981,-0.88
140.8981,-2.2
140.9981,-1.54
141.0981,-1.82
141.1981,-1.35
141.2981,-2.1
141.3981,-1.63
141.4981,-0.13
141.5981,0.25
141.6981,1.19
141.7981,0.25
141.8981,-0.03
141.9981,0.53
142.0981,1.19
142.1981,0.91
142.2981,1.0
142.3981,0.53
142.4981,0.44
142.5981,-0.13
142.6981,-0.69
142.7981,-0.03
142.8981,0.34
142.9981,0.81
143.0981,0.91
143.1981,1.0
143.2981,0.81
143.3981,-0.98
143.4981,-2.39
143.5981,-5.3
143.6981,-8.79
143.7981,-11.14
143.8981,-11.33
143.9981,-6.72
144.0981,-4.08
144.1981,-3.33
144.2981,-1.35
144.3981,0.06
144.4981,0.25
144.5981,-0.03
144.6981,-0.22
144.7981,0.34
144.8981,0.25
144.9981,-0.51
145.0981,-1.16
145.1981,-1.54
145.2981,-2.2
145.3981,-1.63
145.4981,-1.45
145.5981,-1.73
145.6981,-0.98
145.7981,-1.07
145.8981,0.25
145.9981,0.44
146.0981,0.72
146.1981,-0.03
146.2981,1.38
146.3981,0.44
146.4981,-0.6
146.5981,-0.22
146.6981,0.53
146.7981,0.34
146.8981,0.25
146.9981,-0.13
147.0981,-0.22
147.1981,-0.03
147.2981,-0.98
147.3981,0.25
147.4981,0.53
147.5981,1.19
147.6981,0.34
147.7981,0.15
147.8981,0.53
147.9981,-0.6
148.0981,-1.26
148.1981,-1.35
148.2981,-2.58
148.3981,-1.63
148.4981,-0.98
148.5981,-1.63
148.6981,-1.35
148.7981,-1.35
148.8981,-1.63
148.9981,-1.16
149.0981,-1.73
149.1981,-1.45
149.2981,-2.29
149.3981,-2.48
149.4981,-4.27
149.5981,-6.81
149.6981,-10.95
149.7981,-12.83
149.8981,-8.13
149.9981,-4.36
150.0981,-2.01
150.1981,-1.16
150.2981,1.0
150.3981,-0.03
150.4981,-0.22
150.5981,1.19
150.6981,0.44
150.7981,1.0
150.8981,-0.13
150.9981,0.91
151.0981,0.34
151.1981,0.53
151.2981,0.44
151.3981,0.72
151.4981,-0.03
151.5981,-0.98
151.6981,-1.92
151.7981,-3.14
151.8981,-2.58
151.9981,-3.05
152.0981,-3.8
152.1981,-2.29
152.2981,-1.92
152.3981,-1.16
152.4981,0.06
152.5981,-0.41
152.6981,0.53
152.7981,0.81
152.8981,1.28
152.9981,1.09
153.0981,0.91
153.1981,0.15
153.2981,-0.13
153.3981,-0.32
153.4981,-0.69
153.5981,-1.16
153.6981,-0.22
153.7981,-0.41
153.8981,-0.51
153.9981,-0.88
154.0981,-0.69
154.1981,-0.13
154.2981,-0.32
154.3981,-0.41
154.4981,-0.98
154.5981,-0.88
154.6981,-0.98
154.7981,-1.16
154.8981,-1.16
154.9981,-1.07
155.0981,-0.98
155.1981,-0.32
155.2981,-1.07
155.3981,-2.29
155.4981,-4.74
155.5981,-7.75
155.6981,-12.74
155.7981,-12.74
155.8981,-7.85
155.9981,-5.96
156.0981,-2.76
156.1981,-1.63
156.2981,-1.07
156.3981,-1.07
156.4981,-0.88
156.5981,-0.69
156.6981,-1.82
156.7981,-0.32
156.8981,-0.51
156.9981,-0.6
157.0981,-0.6
157.1981,-0.22
157.2981,-0.03
157.3981,-0.13
157.4981,0.62
157.5981,0.25
157.6981,0.34
157.7981,0.25
157.8981,-0.32
157.9981,-0.03
158.0981,-0.88
158.1981,-0.98
158.2981,-2.58
158.3981,-3.7
158.4981,-3.99
158.5981,-2.01
158.6981,-2.58
158.7981,-3.61
158.8981,-2.2
158.9981,-1.45
159.0981,-0.13
159.1981,-0.22
159.2981,-0.51
159.3981,0.91
159.4981,0.72
159.5981,-0.69
159.6981,-0.32
159.7981,0.15
159.8981,-0.32
159.9981,-0.22
160.0981,-0.98
160.1981,0.44
160.2981,-0.22
160.3981,-0.32
160.4981,0.44
160.5981,1.09
160.6981,0.44
160.7981,-0.22
160.8981,0.34
160.9981,0.06
161.0981,-0.88
161.1981,-1.45
161.2981,-3.42
161.3981,-5.49
161.4981,-6.9
161.5981,-12.08
161.6981,-15.56
161.7981,-12.83
161.8981,-8.32
161.9981,-5.3
162.0981,-4.08
162.1981,-2.48
162.2981,-2.01
162.3981,-2.58
162.4981,-1.92
162.5981,-2.86
162.6981,-2.1
162.7981,-1.26
162.8981,-2.67
162.9981,-2.1
163.0981,-2.29
163.1981,-1.26
163.2981,-0.6
163.3981,-0.41
163.4981,-0.69
163.5981,-0.41
163.6981,-0.41
163.7981,-0.22
163.8981,1.38
163.9981,0.72
164.0981,-0.13
164.1981,0.81
164.2981,1.0
164.3981,1.57
164.4981,1.0
164.5981,0.44
164.6981,1.0
164.7981,0.06
164.8981,-0.6
164.9981,-0.98
165.0981,-1.92
165.1981,-2.29
165.2981,-3.33
165.3981,-3.14
165.4981,-3.33
165.5981,-3.23
165.6981,-3.23
165.7981,-3.89
165.8981,-2.76
165.9981,-2.2
166.0981,-1.82
166.1981,-1.92
166.2981,-2.01
166.3981,-2.01
166.4981,-2.01
166.5981,-1.92
166.6981,-1.54
166.7981,-2.01
166.8981,-0.88
166.9981,-0.88
167.0981,-0.41
167.1981,-0.79
167.2981,-1.26
167.3981,-3.8
167.4981,-6.81
167.5981,-11.8
167.6981,-14.34
167.7981,-9.92
167.8981,-6.15
167.9981,-4.65
168.0981,-3.23
168.1981,-2.2
168.2981,-2.29
168.3981,-1.16
168.4981,-1.07
168.5981,-0.6
168.6981,-1.07
168.7981,-1.26
168.8981,-0.88
168.9981,-1.35
169.0981,-2.29
169.1981,-1.54
169.2981,-1.92
169.3981,-2.2
169.4981,-2.01
169.5981,-2.39
169.6981,-2.58
169.7981,-3.7
169.8981,-3.23
169.9981,-3.05
170.0981,-3.14
170.1981,-2.39
170.2981,-2.67
170.3981,-2.95
170.4981,-2.2
170.5981,-2.29
170.6981,-2.2
170.7981,-2.1
170.8981,-1.54
170.9981,-0.98
171.0981,-0.98
171.1981,-1.07
171.2981,-0.51
171.3981,-0.6
171.4981,-0.69
171.5981,-1.73
171.6981,-2.1
171.7981,-1.92
171.8981,-1.35
171.9981,-2.58
172.0981,-1.63
172.1981,-1.45
172.2981,-2.29
172.3981,-0.69
172.4981,-0.51
172.5981,-1.35
172.6981,-1.07
172.7981,-0.41
172.8981,-0.69
172.9981,-2.2
173.0981,-2.01
173.1981,-3.14
173.2981,-5.49
173.3981,-7.38
173.4981,-10.86
173.5981,-15.09
173.6981,-15.19
173.7981,-10.39
173.8981,-7.0
173.9981,-4.74
174.0981,-3.61
174.1981,-3.52
174.2981,-3.05
174.3981,-2.67
174.4981,-3.05
174.5981,-2.58
174.6981,-3.42
174.7981,-3.05
174.8981,-3.14
174.9981,-2.48
175.0981,-3.05
175.1981,-2.29
175.2981,-2.29
175.3981,-2.29
175.4981,-1.26
175.5981,-1.92
175.6981,-0.88
175.7981,-0.79
175.8981,-2.48
175.9981,-1.63
176.0981,-0.98
176.1981,-1.63
176.2981,-2.95
176.3981,-2.95
176.4981,-1.54
176.5981,-1.73
176.6981,-1.45
176.7981,-1.45
176.8981,-1.73
176.9981,-1.07
177.0981,-0.6
177.1981,-1.07
177.2981,-1.07
177.3981,-0.6
177.4981,-1.26
177.5981,-1.16
177.6981,-1.26
177.7981,-1.35
177.8981,-1.63
177.9981,-2.2
178.0981,-2.95
178.1981,-3.99
178.2981,-4.83
178.3981,-5.59
178.4981,-5.4
178.5981,-6.53
178.6981,-5.68
178.7981,-6.15
178.8981,-5.12
178.9981,-5.49
179.0981,-6.34
179.1981,-6.53
179.2981,-6.9
179.3981,-9.26
179.4981,-13.02
179.5981,-16.41
179.6981,-13.3
179.7981,-7.66
179.8981,-5.3
179.9981,-3.14
180.0981,-0.98
180.1981,-0.51
180.2981,0.34
180.3981,-0.03
180.4981,0.34
180.5981,0.15
180.6981,-0.22
180.7981,-0.22
180.8981,-1.35
180.9981,-1.54
181.0981,-1.54
181.1981,-1.92
181.2981,-2.95
181.3981,-2.95
181.4981,-3.23
181.5981,-3.05
181.6981,-3.52
181.7981,-2.67
181.8981,-3.33
181.9981,-3.61
182.0981,-5.02
182.1981,-4.74
182.2981,-5.12
182.3981,-5.3
182.4981,-5.4
182.5981,-5.78
182.6981,-6.15
182.7981,-5.78
182.8981,-5.78
182.9981,-5.59
183.0981,-5.49
183.1981,-5.49
183.2981,-4.55
183.3981,-4.08
183.4981,-3.89
183.5981,-3.42
183.6981,-2.01
183.7981,-1.45
183.8981,-1.16
183.9981,-0.03
184.0981,-0.88
184.1981,0.62
184.2981,0.53
184.3981,-0.22
184.4981,-0.79
184.5981,-0.51
184.6981,-1.82
184.7981,-2.1
184.8981,-2.01
184.9981,-1.92
185.0981,-2.29
185.1981,-3.23
185.2981,-6.43
185.3981,-8.22
185.4981,-12.93
185.5981,-16.22
185.6981,-13.02
185.7981,-9.92
185.8981,-7.66
185.9981,-7.47
186.0981,-7.28
186.1981,-7.47
186.2981,-7.94
186.3981,-7.75
186.4981,-6.25
186.5981,-5.3
186.6981,-4.65
186.7981,-3.89
186.8981,-3.23
186.9981,-3.42
187.0981,-4.74
187.1981,-3.52
187.2981,-3.33
187.3981,-3.7
187.4981,-3.61
187.5981,-4.08
187.6981,-3.7
187.7981,-3.14
187.8981,-3.42
187.9981,-2.95
188.0981,-3.7
188.1981,-2.95
188.2981,-1.82
188.3981,-1.73
188.4981,-0.13
188.5981,-1.82
188.6981,-1.73
188.7981,-1.63
188.8981,-2.1
188.9981,-2.67
189.0981,-2.01
189.1981,-2.76
189.2981,-3.05
189.3981,-4.36
189.4981,-4.08
189.5981,-4.55
189.6981,-5.12
189.7981,-5.49
189.8981,-5.21
189.9981,-5.02
190.0981,-6.15
190.1981,-4.74
190.2981,-5.68
190.3981,-4.93
190.4981,-4.83
190.5981,-3.89
190.6981,-3.61
190.7981,-3.61
190.8981,-4.18
190.9981,-3.89
191.0981,-4.36
191.1981,-5.78
191.2981,-7.75
191.3981,-10.2
191.4981,-15.0
191.5981,-15.85
191.6981,-11.61
191.7981,-7.09
191.8981,-5.78
191.9981,-4.65
192.0981,-4.27
192.1981,-4.65
192.2981,-4.93
192.3981,-6.62
192.4981,-6.15
192.5981,-6.72
192.6981,-7.09
192.7981,-5.96
192.8981,-5.21
192.9981,-3.05
193.0981,-2.95
193.1981,-1.82
193.2981,-2.2
193.3981,-2.1
193.4981,-2.01
193.5981,-1.45
193.6981,-2.1
193.7981,-3.8
193.8981,-3.52
193.9981,-3.61
194.0981,-3.7
194.1981,-4.74
194.2981,-4.55
194.3981,-5.3
194.4981,-3.99
194.5981,-4.36
194.6981,-3.8
194.7981,-4.27
194.8981,-4.08
194.9981,-4.27
195.0981,-3.8
195.1981,-5.3
195.2981,-5.78
195.3981,-6.72
195.4981,-8.22
195.5981,-7.85
195.6981,-7.09
195.7981,-6.9
195.8981,-5.68
195.9981,-4.74
196.0981,-4.27
196.1981,-4.08
196.2981,-4.08
196.3981,-3.99
196.4981,-4.83
196.5981,-5.4
196.6981,-4.27
196.7981,-4.18
196.8981,-4.46
196.9981,-4.27
197.0981,-4.46
197.1981,-5.68
197.2981,-7.94
197.3981,-11.89
197.4981,-15.75
197.5981,-13.78
197.6981,-8.98
197.7981,-7.38
197.8981,-5.49
197.9981,-4.46
198.0981,-2.95
198.1981,-3.42
198.2981,-3.7
198.3981,-3.61
198.4981,-4.18
198.5981,-5.49
198.6981,-5.78
198.7981,-6.25
198.8981,-6.62
198.9981,-6.53
199.0981,-7.19
199.1981,-8.41
199.2981,-8.32
199.3981,-8.88
199.4981,-8.88
199.5981,-7.75
199.6981,-6.9
199.7981,-6.06
199.8981,-4.93
199.9981,-4.74
200.0981,-3.61
200.1981,-3.61
200.2981,-3.8
200.3981,-3.61
200.4981,-3.99
200.5981,-3.7
200.6981,-5.02
200.7981,-5.02
200.8981,-5.4
200.9981,-4.83
201.0981,-4.93
201.1981,-4.93
201.2981,-3.52
201.3981,-2.86
201.4981,-2.29
201.5981,-1.82
201.6981,-3.05
201.7981,-2.01
201.8981,-3.7
201.9981,-2.76
202.0981,-3.42
202.1981,-3.61
202.2981,-3.89
202.3981,-4.83
202.4981,-5.68
202.5981,-6.43
202.6981,-5.87
202.7981,-6.06
202.8981,-7.66
202.9981,-7.0
203.0981,-9.63
203.1981,-10.86
203.2981,-14.25
203.3981,-18.2
203.4981,-21.96
203.5981,-17.73
203.6981,-13.02
203.7981,-9.73
203.8981,-8.22
203.9981,-6.06
204.0981,-4.83
204.1981,-4.74
204.2981,-4.18
204.3981,-4.27
204.4981,-3.42
204.5981,-3.05
204.6981,-2.58
204.7981,-3.05
204.8981,-2.76
204.9981,-2.01
205.0981,-2.48
205.1981,-2.76
205.2981,-3.05
205.3981,-3.33
205.4981,-4.55
205.5981,-4.93
205.6981,-5.59
205.7981,-6.62
205.8981,-8.5
205.9981,-9.92
206.0981,-9.63
206.1981,-9.45
206.2981,-8.22
206.3981,-6.06
206.4981,-5.68
206.5981,-5.12
206.6981,-4.55
206.7981,-4.83
206.8981,-3.89
206.9981,-3.8
207.0981,-4.08
207.1981,-4.55
207.2981,-5.12
207.3981,-5.49
207.4981,-6.06
207.5981,-5.68
207.6981,-6.06
207.7981,-5.3
207.8981,-5.02
207.9981,-4.55
208.0981,-4.27
208.1981,-4.93
208.2981,-4.65
208.3981,-4.36
208.4981,-5.78
208.5981,-5.78
208.6981,-6.06
208.7981,-6.72
208.8981,-7.47
208.9981,-7.94
209.0981,-8.6
209.1981,-10.86
209.2981,-13.4
209.3981,-17.92
209.4981,-18.76
209.5981,-13.4
209.6981,-10.58
209.7981,-8.13
209.8981,-7.56
209.9981,-5.87
210.0981,-6.06
210.1981,-5.68
210.2981,-5.21
210.3981,-5.12
210.4981,-4.83
210.5981,-5.02
210.6981,-4.83
210.7981,-5.4
210.8981,-3.99
210.9981,-3.8
211.0981,-4.46
211.1981,-4.93
211.2981,-4.74
211.3981,-5.59
211.4981,-4.93
211.5981,-4.93
211.6981,-5.49
211.7981,-4.83
211.8981,-5.3
211.9981,-6.06
212.0981,-5.78
212.1981,-6.34
212.2981,-6.81
212.3981,-8.03
212.4981,-9.07
212.5981,-10.2
212.6981,-11.14
212.7981,-11.52
212.8981,-9.54
212.9981,-7.75
213.0981,-6.25
213.1981,-5.59
213.2981,-3.33
213.3981,-3.33
213.4981,-3.33
213.5981,-3.14
213.6981,-3.89
213.7981,-4.55
213.8981,-4.65
213.9981,-5.3
214.0981,-5.12
214.1981,-5.68
214.2981,-5.12
214.3981,-5.02
214.4981,-4.18
214.5981,-4.46
214.6981,-4.18
214.7981,-3.89
214.8981,-4.46
214.9981,-5.12
215.0981,-7.94
215.1981,-11.23
215.2981,-15.28
215.3981,-21.12
215.4981,-20.74
215.5981,-16.32
215.6981,-12.55
215.7981,-9.82
215.8981,-7.19
215.9981,-6.34
216.0981,-5.96
216.1981,-5.78
216.2981,-5.96
216.3981,-5.4
216.4981,-6.06
216.5981,-6.25
216.6981,-7.94
216.7981,-9.26
216.8981,-9.82
216.9981,-11.14
217.0981,-10.76
217.1981,-8.41
217.2981,-7.56
217.3981,-6.53
217.4981,-4.93
217.5981,-5.02
217.6981,-4.36
217.7981,-3.42
217.8981,-3.52
217.9981,-3.33
218.0981,-3.42
218.1981,-4.46
218.2981,-5.21
218.3981,-3.14
218.4981,-3.89
218.5981,-3.89
218.6981,-5.3
218.7981,-4.46
218.8981,-4.27
218.9981,-4.55
219.0981,-5.02
219.1981,-5.87
219.2981,-7.09
219.3981,-7.38
219.4981,-8.41
219.5981,-8.79
219.6981,-8.5
219.7981,-9.63
219.8981,-9.16
219.9981,-8.98
220.0981,-7.94
220.1981,-9.35
220.2981,-8.41
220.3981,-8.03
220.4981,-7.85
220.5981,-6.43
220.6981,-6.62
220.7981,-6.43
220.8981,-7.0
220.9981,-6.9
221.0981,-8.6
221.1981,-11.05
221.2981,-14.53
221.3981,-18.2
221.4981,-15.38
221.5981,-11.89
221.6981,-10.29
221.7981,-8.98
221.8981,-9.26
221.9981,-9.45
222.0981,-9.45
222.1981,-8.69
222.2981,-8.79
222.3981,-7.28
222.4981,-6.72
222.5981,-6.43
222.6981,-5.59
222.7981,-5.49
222.8981,-5.02
222.9981,-5.4
223.0981,-4.74
223.1981,-5.96
223.2981,-7.56
223.3981,-7.09
223.4981,-6.53
223.5981,-7.0
223.6981,-6.25
223.7981,-5.59
223.8981,-4.74
223.9981,-4.74
224.0981,-4.93
224.1981,-4.08
224.2981,-6.9
224.3981,-5.59
224.4981,-6.9
224.5981,-6.81
224.6981,-6.9
224.7981,-8.03
224.8981,-8.6
224.9981,-8.88
225.0981,-8.69
225.1981,-7.66
225.2981,-8.03
225.3981,-8.98
225.4981,-8.69
225.5981,-8.41
225.6981,-10.39
225.7981,-11.8
225.8981,-11.52
225.9981,-12.36
226.0981,-11.14
226.1981,-9.92
226.2981,-8.69
226.3981,-7.47
226.4981,-6.25
226.5981,-5.21
226.6981,-5.12
226.7981,-4.27
226.8981,-5.49
226.9981,-6.25
227.0981,-8.41
227.1981,-10.76
227.2981,-16.03
227.3981,-17.82
227.4981,-13.4
227.5981,-9.16
227.6981,-6.15
227.7981,-6.15
227.8981,-4.27
227.9981,-4.46
228.0981,-3.7
228.1981,-4.74
228.2981,-5.3
228.3981,-5.3
228.4981,-7.38
228.5981,-9.07
228.6981,-10.86
228.7981,-12.93
228.8981,-13.68
228.9981,-12.08
229.0981,-11.14
229.1981,-10.86
229.2981,-10.1
229.3981,-10.01
229.4981,-10.86
229.5981,-10.2
229.6981,-10.39
229.7981,-11.89
229.8981,-11.7
229.9981,-12.65
230.0981,-11.23
230.1981,-10.1
230.2981,-9.16
230.3981,-6.62
230.4981,-5.49
230.5981,-5.02
230.6981,-3.99
230.7981,-3.61
230.8981,-3.61
230.9981,-3.99
231.0981,-3.23
231.1981,-2.95
231.2981,-4.18
231.3981,-4.18
231.4981,-3.99
231.5981,-4.55
231.6981,-4.36
231.7981,-3.89
231.8981,-4.27
231.9981,-4.18
232.0981,-4.93
232.1981,-4.83
232.2981,-5.02
232.3981,-5.12
232.4981,-7.47
232.5981,-7.47
232.6981,-9.35
232.7981,-11.7
232.8981,-15.94
232.9981,-20.18
233.0981,-29.12
233.1981,-31.56
233.2981,-31.19
233.3981,-26.86
233.4981,-19.05
233.5981,-15.28
233.6981,-11.23
233.7981,-9.07
233.8981,-7.56
233.9981,-6.72
234.0981,-6.43
234.1981,-4.83
234.2981,-5.12
234.3981,-5.12
234.4981,-4.27
234.5981,-5.49
234.6981,-5.21
234.7981,-5.12
234.8981,-5.3
234.9981,-5.3
235.0981,-6.25
235.1981,-5.49
235.2981,-6.15
235.3981,-5.96
235.4981,-5.68
235.5981,-5.3
235.6981,-5.49
235.7981,-4.83
235.8981,-5.59
235.9981,-6.15
236.0981,-6.06
236.1981,-6.34
236.2981,-7.28
236.3981,-8.6
236.4981,-9.54
236.5981,-10.58
236.6981,-12.46
236.7981,-15.19
236.8981,-16.32
236.9981,-15.85
237.0981,-13.4
237.1981,-11.8
237.2981,-11.05
237.3981,-10.2
237.4981,-10.1
237.5981,-9.92
237.6981,-8.22
237.7981,-9.92
237.8981,-9.26
237.9981,-7.75
238.0981,-7.85
238.1981,-7.66
238.2981,-6.9
238.3981,-7.0
238.4981,-6.25
238.5981,-5.96
238.6981,-6.53
238.7981,-6.62
238.8981,-7.66
238.9981,-9.16
239.0981,-12.36
239.1981,-17.35
239.2981,-21.4
239.3981,-18.86
239.4981,-15.19
239.5981,-11.42
239.6981,-9.82
239.7981,-9.35
239.8981,-7.66
239.9981,-8.13
240.0981,-8.88
240.1981,-9.07
240.2981,-8.6
240.3981,-7.85
240.4981,-7.38
240.5981,-7.19
240.6981,-6.62
240.7981,-6.53
240.8981,-5.12
240.9981,-5.12
241.0981,-5.4
241.1981,-5.96
241.2981,-5.59
241.3981,-6.43
241.4981,-8.41
241.5981,-9.45
241.6981,-11.8
241.7981,-14.62
241.8981,-19.14
241.9981,-19.99
242.0981,-16.88
242.1981,-13.68
242.2981,-11.05
242.3981,-9.73
242.4981,-8.32
242.5981,-8.13
242.6981,-7.85
242.7981,-7.0
242.8981,-7.09
242.9981,-7.75
243.0981,-7.19
243.1981,-7.0
243.2981,-8.32
243.3981,-7.94
243.4981,-8.22
243.5981,-6.9
243.6981,-6.9
243.7981,-5.68
243.8981,-5.78
243.9981,-4.93
244.0981,-4.46
244.1981,-5.12
244.2981,-4.74
244.3981,-4.46
244.4981,-6.62
244.5981,-6.81
244.6981,-6.62
244.7981,-8.5
244.8981,-9.45
244.9981,-12.65
245.0981,-15.19
245.1981,-19.89
245.2981,-21.68
245.3981,-17.26
245.4981,-13.02
245.5981,-11.61
245.6981,-10.39
245.7981,-11.33
245.8981,-13.78
245.9981,-14.25
246.0981,-16.79
246.1981,-20.46
246.2981,-23.38
246.3981,-19.99
246.4981,-16.5
246.5981,-12.27
246.6981,-11.05
246.7981,-8.41
246.8981,-7.0
246.9981,-5.3
247.0981,-5.12
247.1981,-3.61
247.2981,-3.23
247.3981,-3.14
247.4981,-2.2
247.5981,-2.39
247.6981,-2.48
247.7981,-2.58
247.8981,-2.1
247.9981,-2.95
248.0981,-2.67
248.1981,-3.42
248.2981,-3.23
248.3981,-3.8
248.4981,-3.89
248.5981,-4.27
248.6981,-4.46
248.7981,-5.02
248.8981,-5.3
248.9981,-6.06
249.0981,-6.9
249.1981,-8.41
249.2981,-10.1
249.3981,-12.93
249.4981,-16.13
249.5981,-20.46
249.6981,-32.41
249.7981,-23.0
249.8981,-16.88
249.9981,-13.87
250.0981,-10.48
250.1981,-9.26
250.2981,-7.75
250.3981,-7.28
250.4981,-6.06
250.5981,-5.68
250.6981,-6.25
250.7981,-5.96
250.8981,-7.47
250.9981,-9.82
251.0981,-13.02
251.1981,-18.39
251.2981,-17.45
251.3981,-11.05
251.4981,-8.13
251.5981,-5.49
251.6981,-3.99
251.7981,-3.8
251.8981,-3.14
251.9981,-3.05
252.0981,-3.61
252.1981,-4.18
252.2981,-4.93
252.3981,-5.3
252.4981,-5.49
252.5981,-6.43
252.6981,-9.07
252.7981,-9.73
252.8981,-11.8
252.9981,-12.93
253.0981,-15.0
253.1981,-16.69
253.2981,-19.52
253.3981,-19.89
253.4981,-18.2
253.5981,-16.13
253.6981,-14.06
253.7981,-12.83
253.8981,-10.01
253.9981,-8.6
254.0981,-7.85
254.1981,-7.09
254.2981,-7.28
254.3981,-7.38
254.4981,-6.81
254.5981,-5.12
254.6981,-5.68
254.7981,-5.4
254.8981,-6.62
254.9981,-6.25
255.0981,-6.15
255.1981,-6.53
255.2981,-5.12
255.3981,-5.59
255.4981,-4.55
255.5981,-5.87
255.6981,-5.96
255.7981,-5.87
255.8981,-6.81
255.9981,-8.03
256.0981,-8.32
256.1981,-10.2
256.2981,-9.73
256.3981,-10.1
256.4981,-10.95
256.5981,-11.05
256.6981,-11.42
256.7981,-11.99
256.8981,-13.96
256.9981,-15.75
257.0981,-20.55
257.1981,-23.94
257.2981,-22.06
257.3981,-17.07
257.4981,-14.43
257.5981,-13.59
257.6981,-11.52
257.7981,-10.39
257.8981,-10.1
257.9981,-9.16
258.0981,-8.5
258.1981,-7.66
258.2981,-7.75
258.3981,-5.96
258.4981,-6.15
258.5981,-6.25
258.6981,-5.68
258.7981,-6.06
258.8981,-6.62
258.9981,-6.34
259.0981,-6.34
259.1981,-6.72
259.2981,-7.56
259.3981,-8.69
259.4981,-9.54
259.5981,-10.1
259.6981,-11.42
259.7981,-13.12
259.8981,-13.49
259.9981,-13.02
260.0981,-12.27
260.1981,-9.92
260.2981,-9.92
260.3981,-9.07
260.4981,-7.94
260.5981,-8.13
260.6981,-7.28
260.7981,-7.28
260.8981,-6.25
260.9981,-6.25
261.0981,-6.9
261.1981,-6.53
261.2981,-5.59
261.3981,-6.72
261.4981,-6.62
261.5981,-6.62
261.6981,-6.34
261.7981,-5.96
261.8981,-6.34
261.9981,-6.72
262.0981,-6.25
262.1981,-6.06
262.2981,-6.43
262.3981,-7.85
262.4981,-9.45
262.5981,-11.23
262.6981,-13.87
262.7981,-16.13
262.8981,-20.36
262.9981,-23.09
263.0981,-26.48
263.1981,-27.23
263.2981,-21.96
263.3981,-16.22
263.4981,-13.12
263.5981,-11.05
263.6981,-9.63
263.7981,-8.88
263.8981,-8.6
263.9981,-8.32
264.0981,-8.32
264.1981,-7.56
264.2981,-6.72
264.3981,-5.49
264.4981,-4.74
264.5981,-4.08
264.6981,-3.33
264.7981,-3.61
264.8981,-3.61
264.9981,-2.58
265.0981,-3.33
265.1981,-2.95
265.2981,-4.27
265.3981,-5.21
265.4981,-5.87
265.5981,-6.25
265.6981,-7.09
265.7981,-9.54
265.8981,-9.45
265.9981,-9.63
266.0981,-9.63
266.1981,-9.54
266.2981,-11.05
266.3981,-12.74
266.4981,-14.53
266.5981,-18.01
266.6981,-25.54
266.7981,-31.66
266.8981,-19.05
266.9981,-14.62
267.0981,-12.18
267.1981,-9.73
267.2981,-7.28
267.3981,-7.75
267.4981,-6.72
267.5981,-6.25
267.6981,-5.3
267.7981,-5.12
267.8981,-5.59
267.9981,-5.59
268.0981,-4.93
268.1981,-4.74
268.2981,-4.65
268.3981,-4.93
268.4981,-4.83
268.5981,-5.87
268.6981,-6.15
268.7981,-7.0
268.8981,-10.76
268.9981,-13.68
269.0981,-19.99
269.1981,-20.46
269.2981,-16.13
269.3981,-14.9
269.4981,-13.78
269.5981,-13.21
269.6981,-14.62
269.7981,-14.43
269.8981,-15.28
269.9981,-15.94
270.0981,-14.34
270.1981,-13.02
270.2981,-12.83
270.3981,-13.68
270.4981,-12.83
270.5981,-13.3
270.6981,-15.0
270.7981,-14.9
270.8981,-14.53
270.9981,-13.78
271.0981,-11.8
271.1981,-10.86
271.2981,-8.32
271.3981,-8.6
271.4981,-7.85
271.5981,-5.96
271.6981,-5.96
271.7981,-6.06
271.8981,-4.93
271.9981,-5.96
272.0981,-6.43
272.1981,-6.72
272.2981,-6.9
272.3981,-7.09
272.4981,-6.9
272.5981,-7.47
272.6981,-8.88
272.7981,-8.69
272.8981,-9.26
272.9981,-9.35
273.0981,-10.86
273.1981,-11.8
273.2981,-13.68
273.3981,-15.09
273.4981,-15.0
273.5981,-15.66
273.6981,-16.41
273.7981,-15.56
273.8981,-16.32
273.9981,-16.22
274.0981,-16.03
274.1981,-15.38
274.2981,-12.46
274.3981,-11.05
274.4981,-9.35
274.5981,-7.75
274.6981,-8.03
274.7981,-8.88
274.8981,-9.73
274.9981,-13.3
275.0981,-17.35
275.1981,-14.06
275.2981,-9.92
275.3981,-7.56
275.4981,-5.49
275.5981,-6.06
275.6981,-7.47
275.7981,-8.03
275.8981,-10.2
275.9981,-11.23
276.0981,-13.78
276.1981,-18.58
276.2981,-21.68
276.3981,-21.96
276.4981,-19.7
276.5981,-17.07
276.6981,-14.62
276.7981,-14.53
276.8981,-14.9
276.9981,-16.98
277.0981,-18.1
277.1981,-18.2
277.2981,-16.32
277.3981,-13.49
277.4981,-10.48
277.5981,-8.32
277.6981,-6.43
277.7981,-4.65
277.8981,-4.18
277.9981,-3.61
278.0981,-2.95
278.1981,-3.05
278.2981,-2.86
278.3981,-3.89
278.4981,-4.08
278.5981,-4.08
278.6981,-5.3
278.7981,-5.4
278.8981,-6.72
278.9981,-8.41
279.0981,-7.94
279.1981,-8.79
279.2981,-9.07
279.3981,-8.98
279.4981,-9.16
279.5981,-10.01
279.6981,-10.39
279.7981,-11.23
279.8981,-13.49
279.9981,-15.47
280.0981,-18.1
280.1981,-20.27
280.2981,-18.95
280.3981,-15.66
280.4981,-13.78
280.5981,-11.61
280.6981,-12.36
280.7981,-11.89
280.8981,-14.15
280.9981,-17.73
281.0981,-19.7
281.1981,-15.85
281.2981,-11.42
281.3981,-8.13
281.4981,-7.28
281.5981,-5.78
281.6981,-4.27
281.7981,-4.18
281.8981,-3.05
281.9981,-3.8
282.0981,-3.52
282.1981,-3.14
282.2981,-2.48
282.3981,-3.8
282.4981,-4.65
282.5981,-5.4
282.6981,-6.06
282.7981,-6.81
282.8981,-7.66
282.9981,-8.88
283.0981,-11.05
283.1981,-12.46
283.2981,-13.78
283.3981,-16.32
283.4981,-17.54
283.5981,-19.7
283.6981,-22.34
283.7981,-24.03
283.8981,-25.92
283.9981,-23.66
284.0981,-18.76
284.1981,-14.53
284.2981,-13.12
284.3981,-10.58
284.4981,-9.82
284.5981,-8.88
284.6981,-8.13
284.7981,-7.38
284.8981,-6.81
284.9981,-7.38
285.0981,-6.43
285.1981,-5.96
285.2981,-5.4
285.3981,-5.59
285.4981,-6.06
285.5981,-6.15
285.6981,-6.06
285.7981,-5.68
285.8981,-4.74
285.9981,-4.36
286.0981,-4.93
286.1981,-4.93
286.2981,-4.74
286.3981,-6.06
286.4981,-7.09
286.5981,-8.69
286.6981,-10.39
286.7981,-13.4
286.8981,-18.67
286.9981,-23.66
287.0981,-25.92
287.1981,-22.9
287.2981,-23.0
287.3981,-24.22
287.4981,-26.48
287.5981,-22.15
287.6981,-19.14
287.7981,-16.32
287.8981,-13.96
287.9981,-12.27
288.0981,-11.42
288.1981,-10.48
288.2981,-9.45
288.3981,-8.6
288.4981,-8.6
288.5981,-7.85
288.6981,-7.66
288.7981,-7.19
288.8981,-7.47
288.9981,-6.25
289.0981,-7.09
289.1981,-6.34
289.2981,-6.53
289.3981,-7.09
289.4981,-7.56
289.5981,-6.9
289.6981,-8.22
289.7981,-8.22
289.8981,-8.88
289.9981,-9.63
290.0981,-9.45
290.1981,-11.42
290.2981,-12.65
290.3981,-14.9
290.4981,-18.29
290.5981,-24.79
290.6981,-26.76
290.7981,-19.99
290.8981,-14.53
290.9981,-12.74
291.0981,-11.23
291.1981,-10.01
291.2981,-10.2
291.3981,-10.1
291.4981,-10.01
291.5981,-10.67
291.6981,-10.58
291.7981,-11.8
291.8981,-13.12
291.9981,-14.15
292.0981,-14.81
292.1981,-14.72
292.2981,-13.12
292.3981,-11.7
292.4981,-11.99
292.5981,-10.67
292.6981,-11.99
292.7981,-14.43
292.8981,-18.67
292.9981,-24.5
293.0981,-23.75
293.1981,-21.21
293.2981,-21.21
293.3981,-24.69
293.4981,-31.0
293.5981,-22.62
293.6981,-16.79
293.7981,-12.83
293.8981,-11.23
293.9981,-9.54
294.0981,-8.6
294.1981,-7.75
294.2981,-7.28
294.3981,-7.38
294.4981,-8.13
294.5981,-8.41
294.6981,-7.85
294.7981,-7.56
294.8981,-7.85
294.9981,-6.9
295.0981,-6.25
295.1981,-5.68
295.2981,-5.78
295.3981,-5.68
295.4981,-5.4
295.5981,-6.34
295.6981,-5.59
295.7981,-7.28
295.8981,-8.13
295.9981,-9.73
296.0981,-10.67
296.1981,-14.15
296.2981,-16.22
296.3981,-20.18
296.4981,-23.56
296.5981,-28.65
296.6981,-27.99
296.7981,-25.63
296.8981,-22.72
296.9981,-21.02
297.0981,-18.2
297.1981,-16.41
297.2981,-14.62
297.3981,-11.61
297.4981,-11.05
297.5981,-9.35
297.6981,-7.94
297.7981,-7.85
297.8981,-7.19
297.9981,-5.78
298.0981,-5.4
298.1981,-5.4
298.2981,-5.4
298.3981,-5.3
298.4981,-6.25
298.5981,-7.66
298.6981,-8.69
298.7981,-11.8
298.8981,-16.98
298.9981,-20.27
299.8981,-16.79
299.9981,-20.08
300.0981,-16.13
300.1981,-12.18
300.2981,-9.54
300.3981,-8.03
300.4981,-7.56
300.5981,-7.94
300.6981,-7.0
300.7981,-8.6
300.8981,-8.41
300.9981,-9.35
301.0981,-9.54
301.1981,-11.23
301.2981,-11.52
301.3981,-11.8
301.4981,-11.8
301.5981,-10.95
301.6981,-10.1
301.7981,-9.16
301.8981,-8.32
301.9981,-7.38
302.0981,-6.06
302.1981,-6.43
302.2981,-5.12
302.3981,-4.46
302.4981,-4.36
302.5981,-3.61
302.6981,-3.05
302.7981,-2.76
302.8981,-2.76
302.9981,-2.48
303.0981,-1.73
303.1981,-3.23
303.2981,-2.58
303.3981,-3.14
303.4981,-4.18
303.5981,-3.14
303.6981,-3.52
303.7981,-2.76
303.8981,-4.36
303.9981,-5.12
304.0981,-5.12
304.1981,-5.96
304.2981,-6.25
304.3981,-7.28
304.4981,-7.09
304.5981,-8.32
304.6981,-8.79
304.7981,-9.63
304.8981,-10.76
304.9981,-12.08
305.0981,-11.89
305.1981,-11.14
305.2981,-10.86
305.3981,-9.54
305.4981,-10.58
305.5981,-10.86
305.6981,-12.18
305.7981,-14.15
305.8981,-19.14
305.9981,-19.33
306.0981,-13.78
306.1981,-9.73
306.2981,-8.03
306.3981,-5.4
306.4981,-4.18
306.5981,-3.23
306.6981,-3.05
306.7981,-2.39
306.8981,-2.76
306.9981,-2.2
307.0981,-2.2
307.1981,-3.8
307.2981,-4.83
307.3981,-5.12
307.4981,-6.06
307.5981,-7.56
307.6981,-8.69
307.7981,-9.63
307.8981,-11.23
307.9981,-12.83
308.0981,-14.72
308.1981,-16.41
308.2981,-17.73
308.3981,-18.1
308.4981,-19.33
308.5981,-22.62
308.6981,-24.88
308.7981,-25.26
308.8981,-19.99
308.9981,-15.85
309.0981,-13.21
309.1981,-11.14
309.2981,-9.26
309.3981,-7.75
309.4981,-7.09
309.5981,-6.15
309.6981,-4.93
309.7981,-4.93
309.8981,-4.65
309.9981,-5.49
310.0981,-5.68
310.1981,-5.59
310.2981,-5.3
310.3981,-6.81
310.4981,-7.94
310.5981,-8.03
310.6981,-8.79
310.7981,-9.07
310.8981,-10.01
310.9981,-9.45
311.0981,-9.92
311.1981,-10.76
311.2981,-10.67
311.3981,-12.18
311.4981,-13.02
311.5981,-16.88
311.6981,-19.05
311.7981,-23.75
311.8981,-28.55
311.9981,-27.23
312.0981,-22.9
312.1981,-19.8
312.2981,-17.63
312.3981,-15.19
312.4981,-13.21
312.5981,-12.08
312.6981,-10.76
312.7981,-10.01
312.8981,-9.63
312.9981,-9.07
313.0981,-8.41
313.1981,-7.94
313.2981,-8.22
313.3981,-7.38
313.4981,-7.28
313.5981,-7.66
313.6981,-7.0
313.7981,-8.79
313.8981,-9.16
313.9981,-9.26
314.0981,-10.67
314.1981,-10.67
314.2981,-12.08
314.3981,-12.65
314.4981,-12.36
314.5981,-12.93
314.6981,-13.21
314.7981,-14.06
314.8981,-13.87
314.9981,-14.72
315.0981,-15.09
315.1981,-16.32
315.2981,-16.69
315.3981,-16.41
315.4981,-16.5
315.5981,-15.19
315.6981,-13.87
315.7981,-11.61
315.8981,-10.48
315.9981,-9.54
316.0981,-7.0
316.1981,-7.66
316.2981,-6.53
316.3981,-5.87
316.4981,-6.15
316.5981,-4.46
316.6981,-5.02
316.7981,-4.08
316.8981,-4.65
316.9981,-4.27
317.0981,-4.93
317.1981,-5.02
317.2981,-5.68
317.3981,-6.9
317.4981,-8.79
317.5981,-10.58
317.6981,-15.28
317.7981,-20.08
317.8981,-25.45
317.9981,-25.16
318.0981,-23.75
318.1981,-26.67
318.2981,-34.76
318.3981,-28.08
318.4981,-22.62
318.5981,-18.95
318.6981,-16.22
318.7981,-13.59
318.8981,-12.46
318.9981,-10.58
319.0981,-9.45
319.1981,-8.32
319.2981,-7.47
319.3981,-6.62
319.4981,-5.59
319.5981,-3.99
319.6981,-4.36
319.7981,-4.27
319.8981,-3.7
319.9981,-3.52
320.0981,-3.42
320.1981,-2.95
320.2981,-3.52
320.3981,-3.7
320.4981,-4.55
320.5981,-5.3
320.6981,-5.21
320.7981,-6.53
320.8981,-8.13
320.9981,-8.5
321.0981,-8.79
321.1981,-9.07
321.2981,-11.14
321.3981,-12.36
321.4981,-13.4
321.5981,-13.49
321.6981,-15.94
321.7981,-19.05
321.8981,-21.87
321.9981,-24.79
322.0981,-22.72
322.1981,-17.73
322.2981,-14.34
322.3981,-12.74
322.4981,-10.39
322.5981,-8.6
322.6981,-6.72
322.7981,-6.43
322.8981,-6.25
322.9981,-5.68
323.0981,-5.59
323.1981,-5.21
323.2981,-4.93
323.3981,-5.96
323.4981,-6.53
323.5981,-8.88
323.6981,-11.7
323.7981,-17.54
323.8981,-19.42
323.9981,-14.62
324.0981,-11.42
324.1981,-9.07
324.2981,-7.38
324.3981,-7.28
324.4981,-7.28
324.5981,-7.47
324.6981,-7.66
324.7981,-8.88
324.8981,-9.73
324.9981,-10.86
325.0981,-13.12
325.1981,-16.41
325.2981,-18.76
325.3981,-24.13
325.4981,-26.86
325.5981,-21.3
325.6981,-17.07
325.7981,-13.96
325.8981,-11.61
325.9981,-11.14
326.0981,-9.54
326.1981,-9.16
326.2981,-8.6
326.3981,-8.5
326.4981,-7.0
326.5981,-7.0
326.6981,-7.56
326.7981,-7.09
326.8981,-7.28
326.9981,-7.0
327.0981,-7.28
327.1981,-7.28
327.2981,-7.19
327.3981,-5.59
327.4981,-7.28
327.5981,-5.49
327.6981,-5.59
327.7981,-5.78
327.8981,-6.15
327.9981,-7.19
328.0981,-8.41
328.1981,-9.82
328.2981,-10.39
328.3981,-12.46
328.4981,-13.96
328.5981,-17.63
328.6981,-21.4
328.7981,-28.93
328.8981,-26.58
328.9981,-20.83
329.0981,-18.1
329.1981,-14.9
329.2981,-12.74
329.3981,-12.36
329.4981,-13.21
329.5981,-13.59
329.6981,-16.03
329.7981,-20.36
329.8981,-17.63
329.9981,-13.3
330.0981,-9.92
330.1981,-6.25
330.2981,-5.4
330.3981,-4.55
330.4981,-4.18
330.5981,-4.46
330.6981,-4.46
330.7981,-5.02
330.8981,-5.78
330.9981,-7.0
331.0981,-7.38
331.1981,-8.32
331.2981,-10.48
331.3981,-12.08
331.4981,-12.46
331.5981,-13.96
331.6981,-16.03
331.7981,-17.07
331.8981,-18.48
331.9981,-19.7
332.0981,-21.12
332.1981,-19.61
332.2981,-16.03
332.3981,-14.53
332.4981,-12.18
332.5981,-10.29
332.6981,-8.41
332.7981,-6.9
332.8981,-6.06
332.9981,-5.87
333.0981,-3.89
333.1981,-4.08
333.2981,-4.74
333.3981,-3.99
333.4981,-3.14
333.5981,-3.33
333.6981,-4.18
333.7981,-3.42
333.8981,-4.55
333.9981,-5.96
334.0981,-5.96
334.1981,-5.4
334.2981,-6.53
334.3981,-7.38
334.4981,-6.72
334.5981,-7.56
334.6981,-8.22
334.7981,-7.0
334.8981,-8.13
334.9981,-8.41
335.0981,-9.92
335.1981,-10.29
335.2981,-10.95
335.3981,-13.78
335.4981,-15.56
335.5981,-17.82
335.6981,-22.25
335.7981,-24.79
335.8981,-21.3
335.9981,-16.13
336.0981,-11.7
336.1981,-9.54
336.2981,-8.32
336.3981,-6.9
336.4981,-6.06
336.5981,-5.12
336.6981,-5.4
336.7981,-5.59
336.8981,-5.4
336.9981,-4.93
337.0981,-4.36
337.1981,-4.83
337.2981,-4.83
337.3981,-4.27
337.4981,-4.74
337.5981,-3.52
337.6981,-4.18
337.7981,-4.27
337.8981,-5.12
337.9981,-4.46
338.0981,-5.4
338.1981,-5.49
338.2981,-7.0
338.3981,-6.9
338.4981,-7.66
338.5981,-9.16
338.6981,-10.48
338.7981,-12.36
338.8981,-15.09
338.9981,-16.98
339.0981,-18.1
339.1981,-18.58
339.2981,-18.1
339.3981,-16.69
339.4981,-15.66
339.5981,-13.12
339.6981,-14.06
339.7981,-12.55
339.8981,-11.7
339.9981,-11.33
340.0981,-10.86
340.1981,-8.98
340.2981,-8.98
340.3981,-8.22
340.4981,-6.43
340.5981,-6.9
340.6981,-5.59
340.7981,-5.12
340.8981,-4.74
340.9981,-3.99
341.0981,-5.02
341.1981,-5.3
341.2981,-6.15
341.3981,-7.19
341.4981,-9.54
341.5981,-13.12
341.6981,-19.23
341.7981,-21.78
341.8981,-17.73
341.9981,-14.72
342.0981,-12.83
342.1981,-13.12
342.2981,-13.02
342.3981,-14.34
342.4981,-13.59
342.5981,-14.81
342.6981,-14.25
342.7981,-15.75
342.8981,-15.47
342.9981,-15.47
343.0981,-13.59
343.1981,-12.55
343.2981,-11.05
343.3981,-9.92
343.4981,-8.41
343.5981,-7.09
343.6981,-6.81
343.7981,-5.96
343.8981,-6.15
343.9981,-5.59
344.0981,-5.96
344.1981,-6.25
344.2981,-7.94
344.3981,-7.66
344.4981,-8.03
344.5981,-8.6
344.6981,-9.73
344.7981,-10.2
344.8981,-10.29
344.9981,-10.29
345.0981,-10.95
345.1981,-11.33
345.2981,-12.65
345.3981,-13.87
345.4981,-16.41
345.5981,-21.02
345.6981,-26.76
345.7981,-32.69
345.8981,-22.06
345.9981,-17.45
346.0981,-14.53
346.1981,-12.93
346.2981,-10.86
346.3981,-10.95
346.4981,-10.58
346.5981,-9.82
346.6981,-9.45
346.7981,-9.45
346.8981,-11.7
346.9981,-11.8
347.0981,-12.83
347.1981,-11.89
347.2981,-11.8
347.3981,-12.74
347.4981,-14.53
347.5981,-17.45
347.6981,-21.3
347.7981,-19.89
347.8981,-17.07
347.9981,-14.72
348.0981,-12.55
348.1981,-13.96
348.2981,-14.06
348.3981,-18.1
348.4981,-20.55
348.5981,-22.62
348.6981,-19.7
348.7981,-15.94
348.8981,-14.53
348.9981,-11.61
349.0981,-10.67
349.1981,-11.14
349.2981,-10.48
349.3981,-10.29
349.4981,-10.2
349.5981,-10.39
349.6981,-9.54
349.7981,-9.54
349.8981,-9.54
349.9981,-9.35
350.0981,-7.75
350.1981,-7.56
350.2981,-6.06
350.3981,-6.15
350.4981,-6.43
350.5981,-5.12
350.6981,-5.3
350.7981,-5.96
350.8981,-4.74
350.9981,-6.15
351.0981,-7.09
351.1981,-7.0
351.2981,-7.19
351.3981,-9.07
351.4981,-10.29
351.5981,-11.33
351.6981,-12.08
351.7981,-14.81
351.8981,-16.69
351.9981,-17.82
352.0981,-20.18
352.1981,-19.33
352.2981,-17.16
352.3981,-16.6
352.4981,-14.43
352.5981,-13.21
352.6981,-12.36
352.7981,-11.14
352.8981,-10.29
352.9981,-9.54
353.0981,-8.13
353.1981,-9.35
353.2981,-9.54
353.3981,-9.82
353.4981,-12.08
353.5981,-15.19
353.6981,-16.32
353.7981,-15.85
353.8981,-10.29
353.9981,-7.66
354.0981,-5.3
354.1981,-4.65
354.2981,-4.36
354.3981,-3.33
354.4981,-3.89
354.5981,-5.21
354.6981,-4.36
354.7981,-4.46
354.8981,-5.59
354.9981,-6.9
355.0981,-7.47
355.1981,-8.32
355.2981,-9.54
355.3981,-9.63
355.4981,-10.67
355.5981,-10.58
355.6981,-10.67
355.7981,-10.58
355.8981,-10.86
355.9981,-11.23
356.0981,-10.58
356.1981,-8.69
356.2981,-8.03
356.3981,-7.38
356.4981,-6.81
356.5981,-5.68
356.6981,-5.87
356.7981,-4.27
356.8981,-3.7
356.9981,-4.18
357.0981,-4.18
357.1981,-2.67
357.2981,-4.18
357.3981,-3.7
357.4981,-3.99
357.5981,-3.89
357.6981,-4.55
357.7981,-3.8
357.8981,-4.18
357.9981,-3.8
358.0981,-3.89
358.1981,-3.99
358.2981,-3.8
358.3981,-4.08
358.4981,-3.7
358.5981,-4.46
358.6981,-5.12
358.7981,-5.87
358.8981,-6.34
358.9981,-7.56
359.0981,-7.66
359.1981,-10.29
359.2981,-13.3
359.3981,-17.16
359.4981,-20.83
359.5981,-26.39
359.6981,-28.18
359.7981,-22.81
359.8981,-18.48
359.9981,-14.81
360.0981,-11.99
360.1981,-10.58
360.2981,-9.16
360.3981,-7.85
360.4981,-7.09
360.5981,-5.78
360.6981,-4.08
360.7981,-4.83
360.8981,-3.23
360.9981,-3.89
361.0981,-3.14
361.1981,-4.36
361.2981,-3.42
361.3981,-4.74
361.4981,-4.18
361.5981,-5.49
361.6981,-7.0
361.7981,-7.38
361.8981,-7.56
361.9981,-8.88
362.0981,-9.45
362.1981,-9.45
362.2981,-9.82
362.3981,-10.67
362.4981,-10.95
362.5981,-11.33
362.6981,-13.3
362.7981,-14.06
362.8981,-16.6
362.9981,-18.86
363.0981,-20.55
363.1981,-19.7
363.2981,-17.35
363.3981,-14.62
363.4981,-12.27
363.5981,-11.14
363.6981,-9.54
363.7981,-8.5
363.8981,-8.22
363.9981,-8.22
364.0981,-7.19
364.1981,-7.19
364.2981,-7.28
364.3981,-8.32
364.4981,-8.98
364.5981,-9.26
364.6981,-9.35
364.7981,-9.92
364.8981,-9.82
364.9981,-10.29
365.0981,-9.92
365.1981,-10.95
365.2981,-11.8
365.3981,-13.4
365.4981,-17.07
365.5981,-22.62
365.6981,-22.53
365.7981,-17.82
365.8981,-16.03
365.9981,-14.53
366.0981,-15.56
366.1981,-15.85
366.2981,-17.16
366.3981,-18.95
366.4981,-20.93
366.5981,-21.87
366.6981,-21.21
366.7981,-18.39
366.8981,-15.94
366.9981,-13.12
367.0981,-11.42
367.1981,-9.82
367.2981,-9.16
367.3981,-8.88
367.4981,-8.32
367.5981,-7.09
367.6981,-7.56
367.7981,-8.79
367.8981,-8.6
367.9981,-9.54
368.0981,-8.98
368.1981,-9.35
368.2981,-11.33
368.3981,-10.29
368.4981,-11.23
368.5981,-10.48
368.6981,-9.82
368.7981,-10.2
368.8981,-9.45
368.9981,-10.1
369.0981,-9.92
369.1981,-11.23
369.2981,-13.3
369.3981,-15.66
369.4981,-19.05
369.5981,-24.41
369.6981,-25.45
369.7981,-18.95
369.8981,-15.94
369.9981,-12.93
370.0981,-10.58
370.1981,-10.67
370.2981,-9.63
370.3981,-8.88
370.4981,-7.85
370.5981,-8.41
370.6981,-8.41
370.7981,-7.28
370.8981,-7.47
370.9981,-7.38
371.0981,-6.62
371.1981,-7.66
371.2981,-9.16
371.3981,-11.23
371.4981,-15.47
371.5981,-19.61
371.6981,-17.26
371.7981,-12.74
371.8981,-9.73
371.9981,-8.03
372.0981,-8.79
372.1981,-7.09
372.2981,-8.32
372.3981,-9.35
372.4981,-11.14
372.5981,-11.89
372.6981,-13.87
372.7981,-17.63
372.8981,-18.76
372.9981,-20.46
373.0981,-21.21
373.1981,-20.83
373.2981,-18.67
373.3981,-16.03
373.4981,-13.12
373.5981,-11.7
373.6981,-9.73
373.7981,-8.98
373.8981,-7.0
373.9981,-7.28
374.0981,-6.53
374.1981,-5.21
374.2981,-5.96
374.3981,-4.46
374.4981,-5.02
374.5981,-5.4
374.6981,-4.93
374.7981,-5.59
374.8981,-6.72
374.9981,-5.87
375.0981,-7.19
375.1981,-7.66
375.2981,-7.38
375.3981,-8.41
375.4981,-9.07
375.5981,-9.26
375.6981,-8.5
375.7981,-9.54
375.8981,-10.1
375.9981,-10.48
376.0981,-12.46
376.1981,-13.02
376.2981,-15.38
376.3981,-16.03
376.4981,-17.45
376.5981,-17.82
376.6981,-17.45
376.7981,-15.85
376.8981,-13.21
376.9981,-13.3
377.0981,-12.65
377.1981,-13.21
377.2981,-13.96
377.3981,-17.45
377.4981,-21.59
377.5981,-24.32
377.6981,-20.55
377.7981,-15.47
377.8981,-12.46
377.9981,-9.73
378.0981,-8.22
378.1981,-7.19
378.2981,-7.75
378.3981,-7.0
378.4981,-7.19
378.5981,-6.15
378.6981,-7.66
378.7981,-7.56
378.8981,-7.28
378.9981,-8.22
379.0981,-8.69
379.1981,-10.58
379.2981,-11.7
379.3981,-12.93
379.4981,-15.19
379.5981,-16.6
379.6981,-19.23
379.7981,-21.02
379.8981,-23.85
379.9981,-31.47
380.0981,-47.28
380.1981,-29.02
380.2981,-23.56
380.3981,-20.18
380.4981,-18.01
380.5981,-17.07
380.6981,-14.34
380.7981,-15.09
380.8981,-13.68
380.9981,-11.89
381.0981,-11.42
381.1981,-10.67
381.2981,-9.35
381.3981,-8.41
381.4981,-6.81
381.5981,-7.09
381.6981,-6.62
381.7981,-6.9
381.8981,-7.56
381.9981,-6.25
382.0981,-6.9
382.1981,-6.9
382.2981,-8.13
382.3981,-9.26
382.4981,-10.67
382.5981,-12.08
382.6981,-13.02
382.7981,-15.75
382.8981,-18.58
382.9981,-22.06
383.0981,-30.06
383.1981,-40.41
383.2981,-32.69
383.3981,-31.56
383.4981,-33.54
383.5981,-32.79
383.6981,-27.61
383.7981,-23.28
383.8981,-20.93
383.9981,-19.14
384.0981,-16.69
384.1981,-15.28
384.2981,-13.3
384.3981,-12.55
384.4981,-9.07
384.5981,-9.45
384.6981,-8.22
384.7981,-7.09
384.8981,-6.34
384.9981,-5.12
385.0981,-5.49
385.1981,-5.21
385.2981,-6.62
385.3981,-7.28
385.4981,-8.13
385.5981,-7.38
385.6981,-8.88
385.7981,-9.35
385.8981,-10.39
385.9981,-11.05
386.0981,-13.21
386.1981,-13.78
386.2981,-14.9
386.3981,-14.72
386.4981,-15.09
386.5981,-16.32
386.6981,-16.03
386.7981,-15.38
386.8981,-15.09
386.9981,-14.25
387.0981,-13.78
387.1981,-12.18
387.2981,-11.05
387.3981,-9.82
387.4981,-8.5
387.5981,-8.32
387.6981,-8.32
387.7981,-6.72
387.8981,-6.25
387.9981,-6.81
388.0981,-6.72
388.1981,-5.78
388.2981,-6.06
388.3981,-7.0
388.4981,-6.25
388.5981,-6.62
388.6981,-8.22
388.7981,-7.66
388.8981,-7.75
388.9981,-8.41
389.0981,-9.54
389.1981,-10.76
389.2981,-13.02
389.3981,-16.22
389.4981,-21.21
389.5981,-20.27
389.6981,-16.6
389.7981,-13.12
389.8981,-12.36
389.9981,-11.7
390.0981,-12.36
390.1981,-13.4
390.2981,-12.65
390.3981,-12.83
390.4981,-13.4
390.5981,-12.83
390.6981,-11.99
390.7981,-12.27
390.8981,-11.61
390.9981,-11.33
391.0981,-10.95
391.1981,-10.39
391.2981,-10.67
391.3981,-10.39
391.4981,-9.16
391.5981,-9.16
391.6981,-9.16
391.7981,-8.69
391.8981,-9.16
391.9981,-9.16
392.0981,-9.07
392.1981,-8.6
392.2981,-7.75
392.3981,-8.6
392.4981,-8.5
392.5981,-9.45
392.6981,-9.35
392.7981,-8.69
392.8981,-9.07
392.9981,-9.16
393.0981,-9.45
393.1981,-9.54
393.2981,-9.63
393.3981,-10.86
393.4981,-11.05
393.5981,-11.33
393.6981,-11.8
393.7981,-11.99
393.8981,-11.42
393.9981,-10.76
394.0981,-11.33
394.1981,-10.2
394.2981,-9.73
394.3981,-9.63
394.4981,-9.26
394.5981,-8.22
394.6981,-7.66
394.7981,-7.85
394.8981,-7.66
394.9981,-8.41
395.0981,-8.6
395.1981,-10.48
395.2981,-12.55
395.3981,-17.73
395.4981,-21.4
395.5981,-18.86
395.6981,-15.28
395.7981,-12.74
395.8981,-11.7
395.9981,-12.18
396.0981,-12.18
396.1981,-11.99
396.2981,-12.46
396.3981,-12.36
396.4981,-12.08
396.5981,-12.27
396.6981,-11.89
396.7981,-12.83
396.8981,-12.36
396.9981,-12.36
397.0981,-12.55
397.1981,-13.12
397.2981,-13.49
397.3981,-12.83
397.4981,-13.59
397.5981,-13.4
397.6981,-13.3
397.7981,-12.83
397.8981,-13.78
397.9981,-13.68
398.0981,-14.43
398.1981,-14.53
398.2981,-14.25
398.3981,-15.38
398.4981,-17.07
398.5981,-17.73
398.6981,-17.92
398.7981,-17.73
398.8981,-18.48
398.9981,-18.2
399.0981,-19.33
399.1981,-18.76
399.2981,-18.01
399.3981,-18.58
399.4981,-16.98
399.5981,-16.79
399.6981,-17.63
399.7981,-18.39
399.8981,-18.67
399.9981,-19.99
400.0981,-21.12
400.1981,-22.81
400.2981,-23.28
400.3981,-24.79
400.4981,-23.09
400.5981,-23.0
400.6981,-21.4
400.7981,-20.08
400.8981,-19.33
400.9981,-18.58
401.0981,-18.1
401.1981,-18.95
401.2981,-21.68
401.3981,-26.2
401.4981,-26.58
401.5981,-21.21
401.6981,-18.29
401.7981,-14.9
401.8981,-14.15
401.9981,-13.4
402.0981,-13.78
402.1981,-13.49
402.2981,-14.53
402.3981,-16.03
402.4981,-16.79
402.5981,-18.01
402.6981,-18.95
402.7981,-21.68
402.8981,-20.83
402.9981,-21.96
403.0981,-22.25
403.1981,-22.25
403.2981,-21.78
403.3981,-20.36
403.4981,-20.93
403.5981,-19.33
403.6981,-18.48
403.7981,-17.54
403.8981,-17.54
403.9981,-16.6
404.0981,-15.94
404.1981,-15.09
404.2981,-13.96
404.3981,-14.72
404.4981,-15.09
404.5981,-14.9
404.6981,-14.53
404.7981,-13.21
404.8981,-13.59
404.9981,-13.87
405.0981,-14.62
405.1981,-14.62
405.2981,-13.96
405.3981,-14.62
405.4981,-14.43
405.5981,-15.0
405.6981,-15.56
405.7981,-16.79
405.8981,-17.07
405.9981,-17.82
406.0981,-18.1
406.1981,-18.2
406.2981,-18.1
406.3981,-18.58
406.4981,-17.35
406.5981,-17.26
406.6981,-16.32
406.7981,-16.6
406.8981,-16.22
406.9981,-15.75
407.0981,-14.81
407.1981,-16.03
407.2981,-19.33
407.3981,-22.43
407.4981,-20.55
407.5981,-15.47
407.6981,-11.42
407.7981,-8.98
407.8981,-8.6
407.9981,-7.28
408.0981,-7.09
408.1981,-7.47
408.2981,-7.47
408.3981,-7.85
408.4981,-8.5
408.5981,-8.79
408.6981,-10.01
408.7981,-11.61
408.8981,-11.52
408.9981,-13.49
409.0981,-14.81
409.1981,-15.75
409.2981,-15.75
409.3981,-15.66
409.4981,-15.66
409.5981,-14.43
409.6981,-13.4
409.7981,-12.74
409.8981,-11.8
409.9981,-11.7
410.0981,-10.67
410.1981,-9.63
410.2981,-8.69
410.3981,-9.82
410.4981,-9.16
410.5981,-8.41
410.6981,-8.13
410.7981,-7.38
410.8981,-7.38
410.9981,-7.66
411.0981,-8.88
411.1981,-9.16
411.2981,-9.26
411.3981,-9.63
411.4981,-9.35
411.5981,-10.29
411.6981,-10.2
411.7981,-9.73
411.8981,-9.73
411.9981,-8.88
412.0981,-8.98
412.1981,-8.32
412.2981,-8.88
412.3981,-8.13
412.4981,-8.79
412.5981,-9.16
412.6981,-9.07
412.7981,-11.23
412.8981,-11.8
412.9981,-13.49
413.0981,-15.09
413.1981,-18.58
413.2981,-24.32
413.3981,-30.34
413.4981,-32.79
413.5981,-33.73
413.6981,-34.67
413.7981,-35.23
413.8981,-35.7
413.9981,-35.23
414.0981,-35.14
414.1981,-34.76
414.2981,-35.23
414.3981,-35.23
414.4981,-34.76
414.5981,-34.48
414.6981,-34.29
414.7981,-34.01
414.8981,-33.73
414.9981,-33.45
415.0981,-33.73
415.1981,-33.54
415.2981,-34.1
415.3981,-34.29
415.4981,-34.95
415.5981,-35.33
415.6981,-36.18
415.7981,-37.68
415.8981,-38.62
415.9981,-40.5
416.0981,-42.01
416.1981,-43.8
416.2981,-45.02
416.3981,-48.32
416.4981,-48.88
416.5981,-50.01
416.6981,-49.73
416.7981,-48.88
416.8981,-48.5
416.9981,-46.81
417.0981,-45.21
417.1981,-45.12
417.2981,-44.65
417.3981,-44.46
417.4981,-43.99
417.5981,-44.65
417.6981,-45.68
417.7981,-47.0
417.8981,-49.54
417.9981,-51.61
418.0981,-54.15
418.1981,-52.36
418.2981,-49.54
418.3981,-46.62
418.4981,-45.87
418.5981,-43.89
418.6981,-43.14
418.7981,-42.48
418.8981,-42.57
418.9981,-41.82
419.0981,-41.54
419.1981,-41.63
419.2981,-41.63
419.3981,-40.32
419.4981,-40.6
419.5981,-41.16
419.6981,-41.63
419.7981,-42.86
419.8981,-43.05
419.9981,-43.61
420.0981,-44.93
420.1981,-46.53
420.2981,-50.2
420.3981,-57.82
420.4981,-60.08
420.5981,-51.23
420.6981,-45.68
420.7981,-42.95
420.8981,-40.79
420.9981,-39.19
421.0981,-38.06
421.1981,-37.12
421.2981,-36.74
421.3981,-35.99
421.4981,-35.33
421.5981,-35.14
421.6981,-34.95
421.7981,-35.05
421.8981,-35.14
421.9981,-35.7
422.0981,-35.8
422.1981,-36.18
422.2981,-35.33
422.3981,-34.39
422.4981,-34.29
422.5981,-34.58
422.6981,-34.86
422.7981,-35.33
422.8981,-36.36
422.9981,-37.59
423.0981,-39.66
423.1981,-41.73
423.2981,-45.02
423.3981,-49.54
423.4981,-47.0
423.5981,-41.92
423.6981,-39.28
423.7981,-35.7
423.8981,-34.39
423.9981,-33.16
424.0981,-31.75
424.1981,-31.56
424.2981,-31.0
424.3981,-31.56
424.4981,-31.94
424.5981,-32.5
424.6981,-33.54
424.7981,-33.26
424.8981,-32.03
424.9981,-30.53
425.0981,-28.65
425.1981,-27.23
425.2981,-25.73
425.3981,-24.5
425.4981,-23.47
425.5981,-22.62
425.6981,-21.87
425.7981,-21.21
425.8981,-20.46
425.9981,-20.18
426.0981,-19.52
426.1981,-18.95
426.2981,-17.45
426.3981,-15.09
426.4981,-8.6
426.5981,3.73
426.6981,-13.49
426.7981,-17.82
426.8981,-22.53
426.9981,-26.2
427.0981,-31.0
427.1981,-39.94
427.2981,-48.13
427.3981,-35.89
427.4981,-31.94
427.5981,-29.3
427.6981,-27.89
427.7981,-26.76
427.8981,-26.01
427.9981,-25.54
428.0981,-25.35
428.1981,-25.45
428.2981,-25.45
428.3981,-25.92
428.4981,-26.58
428.5981,-27.33
428.6981,-28.08
428.7981,-28.93
428.8981,-30.06
428.9981,-30.62
429.0981,-30.72
429.1981,-31.85
429.2981,-32.13
429.3981,-32.69
429.4981,-34.39
429.5981,-35.33
429.6981,-36.65
429.7981,-38.9
429.8981,-42.1
429.9981,-49.07
430.0981,-54.34
430.1981,-47.85
430.2981,-42.76
430.3981,-39.85
430.4981,-37.68
430.5981,-36.46
430.6981,-35.7
430.7981,-36.83
430.8981,-36.74
430.9981,-36.83
431.0981,-37.68
431.1981,-38.81
431.2981,-40.5
431.3981,-43.14
431.4981,-46.53
431.5981,-51.52
431.6981,-52.08
431.7981,-49.54
431.8981,-44.17
431.9981,-43.14
432.0981,-41.45
432.1981,-40.41
432.2981,-39.56
432.3981,-39.38
432.4981,-39.19
432.5981,-38.9
432.6981,-40.03
432.7981,-39.85
432.8981,-39.85
432.9981,-39.85
433.0981,-43.52
433.1981,-43.61
433.2981,-42.86
433.3981,-41.82
433.4981,-42.2
433.5981,-42.01
433.6981,-42.57
433.7981,-43.14
433.8981,-43.61
433.9981,-45.59
434.0981,-47.09
434.1981,-48.79
434.2981,-51.23
434.3981,-50.01
434.4981,-47.75
434.5981,-46.72
434.6981,-44.65
434.7981,-43.14
434.8981,-42.29
434.9981,-41.63
435.0981,-41.54
435.1981,-41.45
435.2981,-42.1
435.3981,-42.2
435.4981,-42.2
435.5981,-42.95
435.6981,-43.14
435.7981,-44.17
435.8981,-45.77
435.9981,-45.4
436.0981,-48.22
436.1981,-51.99
436.2981,-53.59
436.3981,-53.77
436.4981,-52.55
436.5981,-49.54
436.6981,-46.81
436.7981,-44.93
436.8981,-43.8
436.9981,-43.42
437.0981,-42.67
437.1981,-41.73
437.2981,-41.73
437.3981,-42.1
437.4981,-42.95
437.5981,-42.76
437.6981,-44.08
437.7981,-44.17
437.8981,-44.36
437.9981,-43.61
438.0981,-42.01
438.1981,-41.07
438.2981,-40.13
438.3981,-39.38
438.4981,-38.43
438.5981,-38.06
438.6981,-38.15
438.7981,-38.06
438.8981,-38.25
438.9981,-39.47
439.0981,-40.32
439.1981,-41.92
439.2981,-43.8
439.3981,-47.75
439.4981,-53.02
439.5981,-57.54
439.6981,-56.03
439.7981,-50.2
439.8981,-47.19
439.9981,-45.77
440.0981,-45.12
440.1981,-45.49
440.2981,-45.49
440.3981,-48.13
440.4981,-51.99
440.5981,-58.57
440.6981,-64.32
440.7981,-52.65
440.8981,-47.47
440.9981,-44.46
441.0981,-41.92
441.1981,-40.32
441.2981,-38.81
441.3981,-37.87
441.4981,-37.3
441.5981,-36.74
441.6981,-36.55
441.7981,-36.27
441.8981,-36.46
441.9981,-36.65
442.0981,-36.74
442.1981,-36.74
442.2981,-37.12
442.3981,-37.4
442.4981,-37.59
442.5981,-38.43
442.6981,-39.0
442.7981,-39.85
442.8981,-40.79
442.9981,-42.48
443.0981,-44.08
443.1981,-46.15
443.2981,-50.01
443.3981,-54.06
443.4981,-65.26
443.5981,-58.39
443.6981,-52.27
443.7981,-48.22
443.8981,-47.09
443.9981,-45.96
444.0981,-44.83
444.1981,-43.99
444.2981,-44.55
444.3981,-44.55
444.4981,-45.87
444.5981,-45.12
444.6981,-44.74
444.7981,-44.08
444.8981,-42.39
444.9981,-42.2
445.0981,-41.26
445.1981,-40.79
445.2981,-40.22
445.3981,-39.66
445.4981,-39.19
445.5981,-39.0
445.6981,-39.28
445.7981,-38.62
445.8981,-38.9
445.9981,-38.62
446.0981,-38.81
446.1981,-38.25
446.2981,-38.34
446.3981,-37.96
446.4981,-37.49
446.5981,-34.58
446.6981,-33.45
446.7981,-33.35
446.8981,-33.73
446.9981,-34.48
447.0981,-34.39
447.1981,-35.05
447.2981,-36.36
447.3981,-38.34
447.4981,-40.41
447.5981,-43.33
447.6981,-49.73
447.7981,-53.96
447.8981,-47.09
447.9981,-43.14
448.0981,-39.66
448.1981,-37.87
448.2981,-35.52
448.3981,-34.1
448.4981,-33.16
448.5981,-32.22
448.6981,-30.62
448.7981,-29.59
448.8981,-27.99
448.9981,-26.48
449.0981,-24.6
449.1981,-22.53
449.2981,-17.35
449.3981,-12.74
449.4981,-10.67
449.5981,-6.81
449.6981,-5.87
449.7981,-6.25
449.8981,-6.34
449.9981,-6.53
450.0981,-7.66
450.1981,-7.75
450.2981,-7.85
450.3981,-8.41
450.4981,-8.79
450.5981,-8.32
450.6981,-9.82
450.7981,-10.29
450.8981,-10.48
450.9981,-9.45
451.0981,-10.39
451.1981,-10.76
451.2981,-10.95
451.3981,-10.2
451.4981,-11.14
451.5981,-11.23
451.6981,-12.27
451.7981,-12.83
451.8981,-12.93
451.9981,-16.13
452.0981,-17.54
452.1981,-20.18
452.2981,-19.7
452.3981,-15.94
452.4981,-14.06
452.5981,-11.42
452.6981,-8.88
452.7981,-8.32
452.8981,-7.66
452.9981,-5.3
453.0981,-5.78
453.1981,-5.87
453.2981,-5.12
453.3981,-5.3
453.4981,-5.12
453.5981,-4.74
453.6981,-5.49
453.7981,-5.49
453.8981,-5.87
453.9981,-5.21
454.0981,-5.96
454.1981,-6.06
454.2981,-7.38
454.3981,-7.0
454.4981,-7.47
454.5981,-8.69
454.6981,-9.92
454.7981,-13.12
454.8981,-14.34
454.9981,-17.35
455.0981,-23.28
455.1981,-26.58
455.2981,-21.96
455.3981,-17.92
455.4981,-14.72
455.5981,-11.99
455.6981,-11.14
455.7981,-9.26
455.8981,-9.63
455.9981,-9.82
456.0981,-9.63
456.1981,-9.82
456.2981,-10.29
456.3981,-10.48
456.4981,-9.92
456.5981,-10.29
456.6981,-10.01
456.7981,-9.63
456.8981,-9.45
456.9981,-9.35
457.0981,-8.41
457.1981,-7.56
457.2981,-7.0
457.3981,-6.62
457.4981,-6.53
457.5981,-5.4
457.6981,-5.87
457.7981,-5.3
457.8981,-4.74
457.9981,-4.36
458.0981,-4.55
458.1981,-5.3
458.2981,-5.12
458.3981,-5.3
458.4981,-6.25
458.5981,-6.72
458.6981,-7.0
458.7981,-7.47
458.8981,-8.41
458.9981,-9.07
459.0981,-10.29
459.1981,-12.27
459.2981,-16.13
459.3981,-15.75
459.4981,-16.22
459.5981,-13.21
459.6981,-11.89
459.7981,-10.39
459.8981,-8.98
459.9981,-7.09
460.0981,-6.43
460.1981,-6.34
460.2981,-5.87
460.3981,-4.65
460.4981,-5.4
460.5981,-5.21
460.6981,-6.06
460.7981,-8.6
460.8981,-9.63
460.9981,-13.78
461.0981,-18.76
461.1981,-18.58
461.2981,-14.15
461.3981,-10.1
461.4981,-8.98
461.5981,-7.19
461.6981,-7.47
461.7981,-7.28
461.8981,-7.28
461.9981,-8.13
462.0981,-8.13
462.1981,-8.6
462.2981,-8.5
462.3981,-9.35
462.4981,-8.98
462.5981,-8.41
462.6981,-8.69
462.7981,-7.66
462.8981,-7.38
462.9981,-6.81
463.0981,-7.38
463.1981,-6.72
463.2981,-5.59
463.3981,-6.34
463.4981,-6.9
463.5981,-5.87
463.6981,-7.75
463.7981,-8.32
463.8981,-9.26
463.9981,-10.1
464.0981,-11.8
464.1981,-10.67
464.2981,-8.88
464.3981,-8.41
464.4981,-8.03
464.5981,-6.15
464.6981,-5.68
464.7981,-5.12
464.8981,-5.3
464.9981,-5.59
465.0981,-4.93
465.1981,-5.87
465.2981,-4.93
465.3981,-6.15
465.4981,-7.66
465.5981,-7.09
465.6981,-7.75
465.7981,-8.03
465.8981,-8.98
465.9981,-8.22
466.0981,-8.22
466.1981,-8.03
466.2981,-7.56
466.3981,-7.66
466.4981,-7.19
466.5981,-7.56
466.6981,-8.13
466.7981,-9.45
466.8981,-11.99
466.9981,-15.0
467.0981,-20.18
467.1981,-18.01
467.2981,-13.02
467.3981,-9.16
467.4981,-6.9
467.5981,-5.68
467.6981,-4.36
467.7981,-5.3
467.8981,-4.46
467.9981,-5.4
468.0981,-5.49
468.1981,-7.09
468.2981,-7.94
468.3981,-7.28
468.4981,-8.22
468.5981,-8.88
468.6981,-7.85
468.7981,-7.66
468.8981,-7.56
468.9981,-6.06
469.0981,-5.78
469.1981,-5.78
469.2981,-6.06
469.3981,-6.53
469.4981,-5.49
469.5981,-5.96
469.6981,-6.15
469.7981,-5.87
469.8981,-6.9
469.9981,-7.28
470.0981,-7.38
470.1981,-8.32
470.2981,-9.07
470.3981,-9.07
470.4981,-9.45
470.5981,-8.6
470.6981,-8.6
470.7981,-6.81
470.8981,-7.19
470.9981,-7.09
471.0981,-6.06
471.1981,-5.3
471.2981,-5.68
471.3981,-4.83
471.4981,-5.02
471.5981,-3.89
471.6981,-5.02
471.7981,-5.49
471.8981,-5.3
471.9981,-5.78
472.0981,-5.87
472.1981,-6.72
472.2981,-6.81
472.3981,-7.94
472.4981,-9.63
472.5981,-9.54
472.6981,-11.42
472.7981,-12.55
472.8981,-15.56
472.9981,-19.23
473.0981,-20.93
473.1981,-16.6
473.2981,-12.93
473.3981,-10.86
473.4981,-8.41
473.5981,-6.9
473.6981,-6.62
473.7981,-5.78
473.8981,-5.21
473.9981,-4.65
474.0981,-4.46
474.1981,-3.52
474.2981,-2.95
474.3981,-2.29
474.4981,-2.39
474.5981,-1.92
474.6981,-3.52
474.7981,-3.42
474.8981,-4.55
474.9981,-5.49
475.0981,-5.12
475.1981,-5.96
475.2981,-8.03
475.3981,-9.54
475.4981,-11.05
475.5981,-12.27
475.6981,-12.65
475.7981,-11.8
475.8981,-11.05
475.9981,-9.92
476.0981,-8.03
476.1981,-6.34
476.2981,-4.93
476.3981,-4.36
476.4981,-4.36
476.5981,-4.93
476.6981,-4.46
476.7981,-3.89
476.8981,-4.27
476.9981,-5.12
477.0981,-4.27
477.1981,-5.02
477.2981,-5.4
477.3981,-4.27
477.4981,-4.36
477.5981,-4.55
477.6981,-4.93
477.7981,-4.55
477.8981,-4.55
477.9981,-4.65
478.0981,-3.89
478.1981,-4.46
478.2981,-4.74
478.3981,-4.27
478.4981,-4.55
478.5981,-5.87
478.6981,-9.07
478.7981,-11.05
478.8981,-15.38
478.9981,-21.21
479.0981,-22.72
479.1981,-18.58
479.2981,-14.62
479.3981,-13.02
479.4981,-11.42
479.5981,-10.67
479.6981,-10.1
479.7981,-10.58
479.8981,-11.7
479.9981,-12.36
480.0981,-11.61
480.1981,-9.73
480.2981,-7.66
480.3981,-5.96
480.4981,-5.3
480.5981,-3.8
480.6981,-2.86
480.7981,-1.82
480.8981,-1.07
480.9981,-1.26
481.0981,-1.54
481.1981,-0.69
481.2981,-1.26
481.3981,-1.45
481.4981,-1.82
481.5981,-3.61
481.6981,-3.42
481.7981,-4.27
481.8981,-5.59
481.9981,-4.55
482.0981,-5.78
482.1981,-6.06
482.2981,-6.06
482.3981,-6.62
482.4981,-6.06
482.5981,-5.78
482.6981,-7.47
482.7981,-7.47
482.8981,-8.88
482.9981,-11.05
483.0981,-11.33
483.1981,-11.89
483.2981,-11.42
483.3981,-11.7
483.4981,-10.39
483.5981,-9.63
483.6981,-7.66
483.7981,-7.28
483.8981,-7.19
483.9981,-7.09
484.0981,-6.62
484.1981,-6.15
484.2981,-5.78
484.3981,-5.87
484.4981,-5.68
484.5981,-5.21
484.6981,-6.9
484.7981,-8.22
484.8981,-12.46
484.9981,-15.66
485.0981,-12.74
485.1981,-8.32
485.2981,-4.93
485.3981,-3.05
485.4981,-2.2
485.5981,-1.26
485.6981,-1.16
485.7981,-2.01
485.8981,-1.82
485.9981,-3.33
486.0981,-3.8
486.1981,-4.46
486.2981,-5.3
486.3981,-5.68
486.4981,-6.53
486.5981,-9.26
486.6981,-10.95
486.7981,-14.53
486.8981,-19.14
486.9981,-33.35
487.0981,-21.02
487.1981,-14.43
487.2981,-12.18
487.3981,-9.45
487.4981,-7.28
487.5981,-5.12
487.6981,-4.74
487.7981,-3.42
487.8981,-1.92
487.9981,-2.1
488.0981,-1.07
488.1981,-1.45
488.2981,-0.6
488.3981,-0.79
488.4981,0.15
488.5981,-1.07
488.6981,-2.39
488.7981,-1.07
488.8981,-1.54
488.9981,-2.48
489.0981,-3.23
489.1981,-3.99
489.2981,-5.02
489.3981,-4.46
489.4981,-5.59
489.5981,-6.15
489.6981,-6.06
489.7981,-7.28
489.8981,-6.62
489.9981,-7.47
490.0981,-7.38
490.1981,-7.85
490.2981,-8.22
490.3981,-8.5
490.4981,-9.73
490.5981,-11.33
490.6981,-14.15
490.7981,-17.73
490.8981,-22.43
490.9981,-25.73
491.8981,-22.81
491.9981,-25.45
492.0981,-20.93
492.1981,-15.47
492.2981,-11.33
492.3981,-9.16
492.4981,-5.96
492.5981,-5.87
492.6981,-4.08
492.7981,-4.46
492.8981,-4.18
492.9981,-3.89
493.0981,-3.89
493.1981,-3.89
493.2981,-3.61
493.3981,-3.14
493.4981,-2.01
493.5981,-2.48
493.6981,-2.1
493.7981,-1.26
493.8981,-1.45
493.9981,-1.73
494.0981,-2.1
494.1981,-2.86
494.2981,-3.42
494.3981,-4.65
494.4981,-5.4
494.5981,-5.96
494.6981,-8.79
494.7981,-10.76
494.8981,-10.86
494.9981,-9.16
495.0981,-7.56
495.1981,-6.53
495.2981,-5.4
495.3981,-5.49
495.4981,-5.4
495.5981,-5.4
495.6981,-4.65
495.7981,-5.3
495.8981,-5.96
495.9981,-6.34
496.0981,-6.53
496.1981,-5.96
496.2981,-5.87
496.3981,-7.28
496.4981,-4.93
496.5981,-3.61
496.6981,-4.36
496.7981,-3.7
496.8981,-3.33
496.9981,-4.65
497.0981,-5.12
497.1981,-4.93
497.2981,-5.96
497.3981,-7.19
497.4981,-8.6
497.5981,-10.1
497.6981,-12.65
497.7981,-14.53
497.8981,-18.86
497.9981,-19.23
498.0981,-13.96
498.1981,-10.48
498.2981,-7.75
498.3981,-5.87
498.4981,-4.93
498.5981,-6.25
498.6981,-6.25
498.7981,-6.34
498.8981,-5.3
498.9981,-7.09
499.0981,-6.15
499.1981,-5.21
499.2981,-6.06
499.3981,-5.78
499.4981,-5.68
499.5981,-5.96
499.6981,-4.83
499.7981,-4.46
499.8981,-4.55
499.9981,-4.55
500.0981,-3.89
500.1981,-3.89
500.2981,-2.95
500.3981,-4.08
500.4981,-4.18
500.5981,-3.89
500.6981,-4.46
500.7981,-5.59
500.8981,-6.15
500.9981,-5.12
501.0981,-7.0
501.1981,-7.94
501.2981,-9.63
501.3981,-11.99
501.4981,-13.4
501.5981,-13.21
501.6981,-13.59
501.7981,-11.61
501.8981,-8.79
501.9981,-7.28
502.0981,-6.06
502.1981,-3.99
502.2981,-3.8
502.3981,-2.86
502.4981,-2.1
502.5981,-2.2
502.6981,-2.01
502.7981,-1.73
502.8981,-1.07
502.9981,-0.79
503.0981,-1.92
503.1981,-0.69
503.2981,-0.22
503.3981,-2.01
503.4981,-2.29
503.5981,-5.49
503.6981,-8.13
503.7981,-12.08
503.8981,-17.35
503.9981,-17.63
504.0981,-13.78
504.1981,-11.8
504.2981,-10.67
504.3981,-11.05
504.4981,-10.48
504.5981,-12.08
504.6981,-11.61
504.7981,-10.58
504.8981,-10.01
504.9981,-9.92
505.0981,-8.32
505.1981,-8.03
505.2981,-7.47
505.3981,-5.59
505.4981,-5.4
505.5981,-4.74
505.6981,-4.83
505.7981,-4.36
505.8981,-4.08
505.9981,-3.61
506.0981,-3.05
506.1981,-3.42
506.2981,-2.95
506.3981,-2.58
506.4981,-1.54
506.5981,-1.73
506.6981,-0.69
506.7981,-0.88
506.8981,-1.26
506.9981,-1.63
507.0981,-0.32
507.1981,-0.51
507.2981,-0.6
507.3981,-1.45
507.4981,-1.92
507.5981,-2.2
507.6981,-3.61
507.7981,-5.3
507.8981,-6.53
507.9981,-9.07
508.0981,-10.48
508.1981,-12.55
508.2981,-11.8
508.3981,-10.76
508.4981,-9.35
508.5981,-9.07
508.6981,-7.38
508.7981,-7.56
508.8981,-7.19
508.9981,-6.81
509.0981,-6.06
509.1981,-5.4
509.2981,-5.4
509.3981,-5.02
509.4981,-4.74
509.5981,-5.49
509.6981,-7.0
509.7981,-10.1
509.8981,-12.74
509.9981,-8.79
510.0981,-4.46
510.1981,-2.48
510.2981,-1.45
510.3981,-0.03
510.4981,-1.16
510.5981,-1.54
510.6981,-1.16
510.7981,-2.95
510.8981,-5.12
510.9981,-4.83
511.0981,-5.78
511.1981,-7.09
511.2981,-7.75
511.3981,-6.34
511.4981,-5.59
511.5981,-6.34
511.6981,-4.83
511.7981,-5.02
511.8981,-6.43
511.9981,-7.66
512.0981,-8.41
512.1981,-9.07
512.2981,-9.73
512.3981,-9.35
512.4981,-8.22
512.5981,-6.9
512.6981,-5.4
512.7981,-5.12
512.8981,-3.89
512.9981,-3.23
513.0981,-3.23
513.1981,-2.48
513.2981,-2.67
513.3981,-2.29
513.4981,-1.82
513.5981,-0.22
513.6981,-1.26
513.7981,-1.16
513.8981,-0.88
513.9981,-0.32
514.0981,-0.03
514.1981,0.25
514.2981,-0.51
514.3981,-0.13
514.4981,-0.41
514.5981,-1.54
514.6981,-0.69
514.7981,-1.73
514.8981,-3.42
514.9981,-4.08
515.0981,-6.06
515.1981,-8.32
515.2981,-11.99
515.3981,-19.61
515.4981,-25.16
515.5981,-19.33
515.6981,-18.2
515.7981,-19.7
515.8981,-19.52
515.9981,-13.49
516.0981,-9.07
516.1981,-5.21
516.2981,-3.14
516.3981,-1.16
516.4981,0.06
516.5981,0.15
516.6981,0.81
516.7981,1.94
516.8981,1.85
516.9981,1.57
517.0981,0.72
517.1981,1.38
517.2981,1.0
517.3981,1.57
517.4981,1.28
517.5981,-1.07
517.6981,-0.32
517.7981,-1.73
517.8981,-2.58
517.9981,-1.73
518.0981,-3.33
518.1981,-3.99
518.2981,-4.65
518.3981,-5.21
518.4981,-5.4
518.5981,-5.4
518.6981,-6.06
518.7981,-6.62
518.8981,-6.43
518.9981,-6.72
519.0981,-7.38
519.1981,-6.9
519.2981,-8.98
519.3981,-7.28
519.4981,-6.72
519.5981,-6.81
519.6981,-5.59
519.7981,-4.46
519.8981,-3.61
519.9981,-3.23
520.0981,-2.95
520.1981,-0.88
520.2981,-0.6
520.3981,0.15
520.4981,0.44
520.5981,0.15
520.6981,1.57
520.7981,0.44
520.8981,0.34
520.9981,0.62
521.0981,0.72
521.1981,1.19
521.2981,-0.03
521.3981,-1.73
521.4981,-3.33
521.5981,-5.96
521.6981,-9.54
521.7981,-14.43
521.8981,-14.06
521.9981,-9.54
522.0981,-6.62
522.1981,-5.59
522.2981,-5.49
522.3981,-7.66
522.4981,-9.07
522.5981,-10.67
522.6981,-11.42
522.7981,-10.01
522.8981,-7.66
522.9981,-4.27
523.0981,-4.36
523.1981,-2.58
523.2981,-1.26
523.3981,-0.51
523.4981,-0.13
523.5981,-0.6
523.6981,0.62
523.7981,-0.88
523.8981,-0.22
523.9981,-0.6
524.0981,-1.26
524.1981,-1.26
524.2981,-1.54
524.3981,-0.51
524.4981,-1.07
524.5981,0.25
524.6981,-0.51
524.7981,-1.16
524.8981,-0.98
524.9981,-1.07
525.0981,-1.54
525.1981,-0.6
525.2981,-1.54
525.3981,-2.1
525.4981,-2.67
525.5981,-2.48
525.6981,-2.29
525.7981,-3.14
525.8981,-2.76
525.9981,-3.52
526.0981,-2.39
526.1981,-2.76
526.2981,-1.73
526.3981,-2.29
526.4981,-3.05
526.5981,-3.23
526.6981,-3.52
526.7981,-4.46
526.8981,-3.89
526.9981,-4.46
527.0981,-4.08
527.1981,-2.86
527.2981,-2.86
527.3981,-2.58
527.4981,-3.89
527.5981,-5.4
527.6981,-10.67
527.7981,-14.15
527.8981,-9.82
527.9981,-5.21
528.0981,-3.33
528.1981,-1.26
528.2981,-2.29
528.3981,-1.07
528.4981,-1.26
528.5981,-1.82
528.6981,-2.1
528.7981,-4.55
528.8981,-4.93
528.9981,-4.83
529.0981,-5.21
529.1981,-4.83
529.2981,-4.65
529.3981,-3.52
529.4981,-3.8
529.5981,-2.67
529.6981,-1.54
529.7981,-0.6
529.8981,-0.6
529.9981,0.62
530.0981,1.28
530.1981,1.28
530.2981,1.66
530.3981,1.75
530.4981,1.57
530.5981,1.85
530.6981,1.47
530.7981,1.75
530.8981,2.04
530.9981,1.28
531.0981,0.34
531.1981,-0.03
531.2981,-2.1
531.3981,-2.29
531.4981,-2.58
531.5981,-3.42
531.6981,-3.42
531.7981,-4.55
531.8981,-4.46
531.9981,-4.74
532.0981,-5.3
532.1981,-5.3
532.2981,-4.93
532.3981,-5.4
532.4981,-5.3
532.5981,-3.61
532.6981,-3.61
532.7981,-3.23
532.8981,-1.26
532.9981,-1.82
533.0981,-0.98
533.1981,-0.03
533.2981,0.34
533.3981,-0.79
533.4981,-2.39
533.5981,-4.83
533.6981,-9.35
533.7981,-11.14
533.8981,-6.15
533.9981,-2.39
534.0981,0.15
534.1981,0.62
534.2981,0.91
534.3981,1.75
534.4981,2.79
534.5981,1.94
534.6981,2.69
534.7981,2.04
534.8981,1.75
534.9981,1.75
535.0981,1.85
535.1981,0.34
535.2981,0.72
535.3981,-0.69
535.4981,-1.26
535.5981,-3.42
535.6981,-4.65
535.7981,-6.43
535.8981,-9.82
535.9981,-10.76
536.0981,-10.1
536.1981,-8.32
536.2981,-5.59
536.3981,-3.99
536.4981,-2.01
536.5981,-0.6
536.6981,1.09
536.7981,0.44
536.8981,2.13
536.9981,1.94
537.0981,1.66
537.1981,3.17
537.2981,3.54
537.3981,3.35
537.4981,4.01
537.5981,3.73
537.6981,4.58
537.7981,3.73
537.8981,3.82
537.9981,4.2
538.0981,4.2
538.1981,4.58
538.2981,4.2
538.3981,3.17
538.4981,2.41
538.5981,1.38
538.6981,1.85
538.7981,0.72
538.8981,-0.79
538.9981,-0.22
539.0981,-1.82
539.1981,-3.33
539.2981,-3.42
539.3981,-5.68
539.4981,-8.98
539.5981,-13.21
539.6981,-18.86
539.7981,-18.29
539.8981,-13.96
539.9981,-10.58
540.0981,-8.13
540.1981,-6.15
540.2981,-3.89
540.3981,-1.92
540.4981,-0.98
540.5981,0.25
540.6981,1.38
540.7981,3.17
540.8981,3.26
540.9981,3.35
541.0981,3.82
541.1981,4.2
541.2981,4.11
541.3981,4.77
541.4981,4.48
541.5981,4.77
541.6981,4.58
541.7981,3.73
541.8981,3.45
541.9981,3.54
542.0981,3.92
542.1981,3.73
542.2981,2.6
542.3981,1.0
542.4981,0.53
542.5981,0.62
542.6981,-0.79
542.7981,-0.88
542.8981,-2.58
542.9981,-3.05
543.0981,-4.27
543.1981,-5.12
543.2981,-6.34
543.3981,-5.87
543.4981,-5.78
543.5981,-4.08
543.6981,-1.92
543.7981,-1.73
543.8981,0.25
543.9981,0.25
544.0981,1.09
544.1981,1.47
544.2981,2.22
544.3981,2.13
544.4981,2.04
544.5981,2.32
544.6981,2.22
544.7981,2.32
544.8981,1.66
544.9981,1.85
545.0981,2.32
545.1981,1.38
545.2981,0.34
545.3981,-1.63
545.4981,-4.08
545.5981,-7.47
545.6981,-11.8
545.7981,-9.07
545.8981,-4.74
545.9981,-1.92
546.0981,-1.35
546.1981,-0.03
546.2981,0.44
546.3981,-0.03
546.4981,0.15
546.5981,-0.03
546.6981,0.06
546.7981,-0.13
546.8981,-0.88
546.9981,-0.51
547.0981,-0.03
547.1981,-0.6
547.2981,-0.41
547.3981,-1.07
547.4981,-0.98
547.5981,-0.51
547.6981,-0.03
547.7981,0.44
547.8981,0.25
547.9981,1.38
548.0981,1.75
548.1981,1.94
548.2981,2.41
548.3981,2.69
548.4981,2.79
548.5981,2.22
548.6981,2.51
548.7981,2.69
548.8981,2.04
548.9981,1.0
549.0981,1.47
549.1981,2.04
549.2981,1.57
549.3981,1.0
549.4981,0.81
549.5981,0.25
549.6981,0.25
549.7981,0.06
549.8981,-0.41
549.9981,-0.6
550.0981,0.15
550.1981,-0.79
550.2981,-0.51
550.3981,-0.41
550.4981,0.72
550.5981,1.09
550.6981,1.57
550.7981,1.94
550.8981,2.04
550.9981,3.26
551.0981,3.26
551.1981,2.88
551.2981,1.47
551.3981,-0.51
551.4981,-3.61
551.5981,-7.56
551.6981,-10.48
551.7981,-6.9
551.8981,-3.7
551.9981,-1.16
552.0981,0.06
552.1981,0.62
552.2981,-0.03
552.3981,0.06
552.4981,1.0
552.5981,0.53
552.6981,0.53
552.7981,0.44
552.8981,0.91
552.9981,0.15
553.0981,0.44
553.1981,0.25
553.2981,0.34
553.3981,0.25
553.4981,-0.69
553.5981,-0.41
553.6981,-0.69
553.7981,-0.69
553.8981,-0.03
553.9981,0.81
554.0981,1.38
554.1981,0.91
554.2981,1.09
554.3981,1.75
554.4981,3.17
554.5981,3.07
554.6981,2.32
554.7981,3.45
554.8981,3.82
554.9981,3.64
555.0981,3.64
555.1981,3.64
555.2981,3.64
555.3981,3.64
555.4981,3.35
555.5981,3.45
555.6981,2.79
555.7981,2.79
555.8981,2.13
555.9981,2.6
556.0981,1.19
556.1981,1.19
556.2981,0.06
556.3981,-0.13
556.4981,-0.79
556.5981,-1.45
556.6981,-2.1
556.7981,-2.67
556.8981,-3.61
556.9981,-2.2
557.0981,-2.2
557.1981,-2.48
557.2981,-1.63
557.3981,-2.95
557.4981,-5.49
557.5981,-10.58
557.6981,-9.63
557.7981,-4.65
557.8981,-0.32
557.9981,2.32
558.0981,3.26
558.1981,3.54
558.2981,3.45
558.3981,4.2
558.4981,4.58
558.5981,3.54
558.6981,3.82
558.7981,4.77
558.8981,4.29
558.9981,3.82
559.0981,4.2
559.1981,2.88
559.2981,2.6
559.3981,1.38
559.4981,1.75
559.5981,1.66
559.6981,0.25
559.7981,-0.41
559.8981,-1.26
559.9981,-0.6
560.0981,-1.45
560.1981,0.06
560.2981,-0.88
560.3981,0.06
560.4981,-0.03
560.5981,-0.03
560.6981,0.25
560.7981,0.81
560.8981,1.19
560.9981,1.38
561.0981,1.09
561.1981,1.57
561.2981,1.94
561.3981,2.41
561.4981,3.35
561.5981,3.64
561.6981,4.11
561.7981,3.35
561.8981,4.58
561.9981,3.73
562.0981,3.54
562.1981,4.2
562.2981,3.54
562.3981,3.64
562.4981,3.17
562.5981,4.01
562.6981,2.98
562.7981,3.54
562.8981,2.51
562.9981,2.13
563.0981,2.13
563.1981,0.62
563.2981,-1.07
563.3981,-5.21
563.4981,-8.88
563.5981,-14.34
563.6981,-11.8
563.7981,-7.28
563.8981,-4.83
563.9981,-1.16
564.0981,0.72
564.1981,1.38
564.2981,1.85
564.3981,2.32
564.4981,3.26
564.5981,2.69
564.6981,3.92
564.7981,3.35
564.8981,3.07
564.9981,3.26
565.0981,3.64
565.1981,3.35
565.2981,3.17
565.3981,2.98
565.4981,2.6
565.5981,3.17
565.6981,3.07
565.7981,2.98
565.8981,4.01
565.9981,3.54
566.0981,3.26
566.1981,2.98
566.2981,2.51
566.3981,2.22
566.4981,1.66
566.5981,0.34
566.6981,1.28
566.7981,0.53
566.8981,-0.22
566.9981,-0.22
567.0981,0.06
567.1981,-0.22
567.2981,0.06
567.3981,1.09
567.4981,0.53
567.5981,1.94
567.6981,1.94
567.7981,2.32
567.8981,3.26
567.9981,3.82
568.0981,4.11
568.1981,4.11
568.2981,4.11
568.3981,4.77
568.4981,4.39
568.5981,5.14
568.6981,5.33
568.7981,4.95
568.8981,5.24
568.9981,4.77
569.0981,4.86
569.1981,2.88
569.2981,0.72
569.3981,-1.82
569.4981,-6.06
569.5981,-9.35
569.6981,-5.49
569.7981,-2.76
569.8981,-0.69
569.9981,0.06
570.0981,0.53
570.1981,-0.79
570.2981,-1.16
570.3981,-1.35
570.4981,-1.07
570.5981,-1.73
570.6981,-1.82
570.7981,-1.16
570.8981,0.15
570.9981,-0.32
571.0981,0.44
571.1981,2.69
571.2981,2.6
571.3981,1.94
571.4981,2.32
571.5981,3.35
571.6981,4.48
571.7981,4.86
571.8981,5.89
571.9981,4.67
572.0981,5.71
572.1981,5.8
572.2981,5.42
572.3981,5.42
572.4981,5.61
572.5981,5.99
572.6981,5.52
572.7981,4.77
572.8981,4.58
572.9981,4.29
573.0981,4.2
573.1981,3.45
573.2981,2.6
573.3981,1.66
573.4981,1.94
573.5981,1.47
573.6981,1.28
573.7981,0.62
573.8981,1.09
573.9981,1.0
574.0981,0.44
574.1981,-0.41
574.2981,-0.98
574.3981,-0.69
574.4981,-0.13
574.5981,0.15
574.6981,0.34
574.7981,1.57
574.8981,1.94
574.9981,2.41
575.0981,2.51
575.1981,0.91
575.2981,-0.69
575.3981,-3.42
575.4981,-8.6
575.5981,-8.88
575.6981,-3.61
575.7981,0.62
575.8981,2.13
575.9981,4.58
576.0981,5.14
576.1981,5.71
576.2981,5.42
576.3981,5.05
576.4981,4.86
576.5981,4.67
576.6981,4.29
576.7981,4.77
576.8981,4.48
576.9981,3.92
577.0981,2.98
577.1981,1.66
577.2981,2.51
577.3981,1.28
577.4981,2.32
577.5981,1.38
577.6981,1.09
577.7981,2.51
577.8981,1.09
577.9981,1.85
578.0981,2.04
578.1981,1.09
578.2981,1.38
578.3981,1.75
578.4981,1.85
578.5981,2.13
578.6981,2.13
578.7981,2.98
578.8981,3.26
578.9981,2.88
579.0981,3.64
579.1981,3.17
579.2981,3.54
579.3981,3.64
579.4981,3.73
579.5981,4.29
579.6981,4.39
579.7981,4.39
579.8981,3.45
579.9981,3.35
580.0981,3.82
580.1981,3.17
580.2981,4.11
580.3981,4.11
580.4981,3.82
580.5981,4.2
580.6981,4.29
580.7981,4.2
580.8981,4.58
580.9981,3.35
581.0981,2.41
581.1981,-0.03
581.2981,-2.1
581.3981,-5.3
581.4981,-9.92
581.5981,-7.66
581.6981,-3.61
581.7981,-0.22
581.8981,1.28
581.9981,4.29
582.0981,4.01
582.1981,3.35
582.2981,4.11
582.3981,4.11
582.4981,3.82
582.5981,4.01
582.6981,2.79
582.7981,2.88
582.8981,2.51
582.9981,2.6
583.0981,1.38
583.1981,2.04
583.2981,2.6
583.3981,2.04
583.4981,2.04
583.5981,2.04
583.6981,2.13
583.7981,2.41
583.8981,2.6
583.9981,2.69
584.0981,1.47
584.1981,1.94
584.2981,2.98
584.3981,3.82
584.4981,3.73
584.5981,3.64
584.6981,4.77
584.7981,5.14
584.8981,5.89
584.9981,5.52
585.0981,5.71
585.1981,6.18
585.2981,6.08
585.3981,6.46
585.4981,5.71
585.5981,6.84
585.6981,6.84
585.7981,6.08
585.8981,5.14
585.9981,5.61
586.0981,6.18
586.1981,4.77
586.2981,4.01
586.3981,3.73
586.4981,2.79
586.5981,2.41
586.6981,1.47
586.7981,1.57
586.8981,1.09
586.9981,0.25
587.0981,-1.16
587.1981,-3.8
587.2981,-5.49
587.3981,-10.29
587.4981,-12.65
587.5981,-8.6
587.6981,-3.8
587.7981,-0.6
587.8981,2.51
587.9981,2.6
588.0981,3.82
588.1981,4.77
588.2981,4.95
588.3981,5.42
588.4981,5.42
588.5981,5.89
588.6981,5.71
588.7981,5.99
588.8981,6.27
588.9981,6.84
589.0981,6.74
589.1981,6.46
589.2981,6.37
589.3981,7.21
589.4981,6.27
589.5981,6.55
589.6981,6.37
589.7981,5.99
589.8981,6.37
589.9981,5.52
590.0981,4.2
590.1981,4.58
590.2981,3.54
590.3981,2.79
590.4981,3.26
590.5981,2.41
590.6981,2.04
590.7981,1.19
590.8981,1.38
590.9981,0.81
591.0981,0.72
591.1981,1.19
591.2981,1.38
591.3981,1.85
591.4981,1.66
591.5981,1.38
591.6981,2.04
591.7981,2.41
591.8981,3.45
591.9981,3.54
592.0981,4.11
592.1981,4.67
592.2981,5.42
592.3981,6.27
592.4981,6.46
592.5981,6.55
592.6981,6.84
592.7981,6.84
592.8981,6.46
592.9981,5.99
593.0981,4.95
593.1981,2.88
593.2981,-0.22
593.3981,-6.06
593.4981,-7.0
593.5981,-2.76
593.6981,1.0
593.7981,2.04
593.8981,3.35
593.9981,3.73
594.0981,4.29
594.1981,4.29
594.2981,2.79
594.3981,2.41
594.4981,2.32
594.5981,0.91
594.6981,0.25
594.7981,1.0
594.8981,0.81
594.9981,0.81
595.0981,2.13
595.1981,2.41
595.2981,3.26
595.3981,4.67
595.4981,3.07
595.5981,4.39
595.6981,5.05
595.7981,4.48
595.8981,4.29
595.9981,4.58
596.0981,4.2
596.1981,4.39
596.2981,5.14
596.3981,4.39
596.4981,5.61
596.5981,5.89
596.6981,6.27
596.7981,6.18
596.8981,6.84
596.9981,5.8
597.0981,6.18
597.1981,5.8
597.2981,6.37
597.3981,5.33
597.4981,5.8
597.5981,4.77
597.6981,4.86
597.7981,5.14
597.8981,4.39
597.9981,3.92
598.0981,3.82
598.1981,4.01
598.2981,3.35
598.3981,4.11
598.4981,3.82
598.5981,3.82
598.6981,4.67
598.7981,2.88
598.8981,2.98
598.9981,2.69
599.0981,1.28
599.1981,-2.1
599.2981,-5.02
599.3981,-8.6
599.4981,-7.19
599.5981,-1.82
599.6981,0.34
599.7981,2.41
599.8981,4.39
599.9981,4.77
600.0981,5.24
600.1981,5.61
600.2981,4.77
600.3981,4.95
600.4981,5.14
600.5981,5.8
600.6981,5.33
600.7981,5.24
600.8981,4.48
600.9981,4.77
601.0981,4.95
601.1981,4.29
601.2981,4.11
601.3981,5.52
601.4981,5.14
601.5981,4.67
601.6981,5.05
601.7981,5.33
601.8981,5.99
601.9981,5.52
602.0981,6.37
602.1981,5.14
602.2981,4.67
602.3981,5.14
602.4981,6.27
602.5981,5.71
602.6981,5.14
602.7981,4.95
602.8981,4.86
602.9981,5.33
603.0981,3.73
603.1981,4.11
603.2981,3.64
603.3981,4.58
603.4981,4.67
603.5981,3.64
603.6981,4.01
603.7981,3.54
603.8981,4.29
603.9981,4.29
604.0981,3.82
604.1981,3.45
604.2981,5.05
604.3981,4.01
604.4981,4.48
604.5981,4.11
604.6981,3.82
604.7981,4.58
604.8981,4.2
604.9981,3.73
605.0981,1.94
605.1981,0.15
605.2981,-5.3
605.3981,-8.32
605.4981,-4.83
605.5981,-0.13
605.6981,2.22
605.7981,3.64
605.8981,4.2
605.9981,4.95
606.0981,5.05
606.1981,5.24
606.2981,5.61
606.3981,5.61
606.4981,5.14
606.5981,6.18
606.6981,5.14
606.7981,5.42
606.8981,6.37
606.9981,5.33
607.0981,4.77
607.1981,4.58
607.2981,4.01
607.3981,3.54
607.4981,4.11
607.5981,3.82
607.6981,2.69
607.7981,1.75
607.8981,2.22
607.9981,1.47
608.0981,2.6
608.1981,3.17
608.2981,3.73
608.3981,4.77
608.4981,5.33
608.5981,5.24
608.6981,5.8
608.7981,5.52
608.8981,5.71
608.9981,5.14
609.0981,6.08
609.1981,5.14
609.2981,6.37
609.3981,6.74
609.4981,6.46
609.5981,6.55
609.6981,7.02
609.7981,6.46
609.8981,6.93
609.9981,5.8
610.0981,5.71
610.1981,6.27
610.2981,6.18
610.3981,4.86
610.4981,5.42
610.5981,3.92
610.6981,4.29
610.7981,4.01
610.8981,2.32
610.9981,2.13
611.0981,-0.88
611.1981,-3.61
611.2981,-8.41
611.3981,-9.63
611.4981,-5.12
611.5981,-1.73
611.6981,0.81
611.7981,2.41
611.8981,3.64
611.9981,4.01
612.0981,4.39
612.1981,3.45
612.2981,3.54
612.3981,4.2
612.4981,4.77
612.5981,5.52
612.6981,5.42
612.7981,5.52
612.8981,5.42
612.9981,7.31
613.0981,6.55
613.1981,6.46
613.2981,6.18
613.3981,6.93
613.4981,7.21
613.5981,6.55
613.6981,6.08
613.7981,5.8
613.8981,5.89
613.9981,5.61
614.0981,5.05
614.1981,4.95
614.2981,4.86
614.3981,4.67
614.4981,4.58
614.5981,4.2
614.6981,4.77
614.7981,3.64
614.8981,4.58
614.9981,4.67
615.0981,3.82
615.1981,3.92
615.2981,4.58
615.3981,4.2
615.4981,4.39
615.5981,4.2
615.6981,4.2
615.7981,5.05
615.8981,4.86
615.9981,6.08
616.0981,5.71
616.1981,5.42
616.2981,5.05
616.3981,5.14
616.4981,5.61
616.5981,5.42
616.6981,4.95
616.7981,4.01
616.8981,3.35
616.9981,1.09
617.0981,-0.03
617.1981,-3.42
617.2981,-8.41
617.3981,-7.0
617.4981,-1.92
617.5981,0.44
617.6981,3.07
617.7981,3.82
617.8981,4.67
617.9981,4.77
618.0981,5.05
618.1981,5.61
618.2981,4.77
618.3981,5.33
618.4981,4.58
618.5981,4.67
618.6981,4.29
618.7981,4.77
618.8981,4.29
618.9981,4.11
619.0981,4.2
619.1981,4.29
619.2981,4.11
619.3981,4.39
619.4981,5.14
619.5981,3.82
619.6981,5.99
619.7981,4.95
619.8981,5.71
619.9981,6.84
620.0980999999999,6.74
620.1981000000001,6.27
620.2981,6.08
620.3981,5.99
620.4981,6.37
620.5980999999999,6.46
620.6981000000001,5.61
620.7981,5.8
620.8981,4.58
620.9981,4.77
621.0980999999999,4.29
621.1981000000001,4.48
621.2981,3.73
621.3981,3.17
621.4981,2.88
621.5980999999999,3.17
621.6981000000001,3.73
621.7981,3.82
621.8981,3.54
621.9981,2.88
622.0980999999999,3.64
622.1981000000001,4.86
622.2981,5.24
622.3981,5.61
622.4981,5.71
622.5980999999999,5.89
622.6981000000001,5.71
622.7981,6.46
622.8981,4.95
622.9981,3.45
623.0980999999999,0.72
623.1981000000001,-3.42
623.2981,-7.28
623.3981,-3.7
623.4981,0.53
623.5980999999999,2.79
623.6981000000001,5.33
623.7981,6.08
623.8981,5.8
623.9981,5.24
624.0980999999999,5.05
624.1981000000001,5.52
624.2981,4.48
624.3981,4.29
624.4981,4.2
624.5980999999999,4.39
624.6981000000001,4.77
624.7981,4.29
624.8981,5.33
624.9981,4.77
625.0980999999999,3.64
625.1981000000001,3.92
625.2981,3.64
625.3981,3.45
625.4981,3.73
625.5980999999999,3.45
625.6981000000001,3.35
625.7981,2.98
625.8981,3.17
625.9981,4.11
626.0980999999999,4.95
626.1981000000001,5.14
626.2981,5.05
626.3981,4.95
626.4981,4.77
626.5980999999999,5.61
626.6981000000001,5.33
626.7981,6.74
626.8981,6.65
626.9981,6.27
627.0980999999999,6.46
627.1981000000001,5.61
627.2981,6.08
627.3981,6.74
627.4981,6.18
627.5980999999999,6.46
627.6981000000001,5.8
627.7981,6.08
627.8981,5.14
627.9981,4.77
628.0980999999999,5.8
628.1981000000001,5.71
628.2981,4.86
628.3981,4.67
628.4981,3.64
628.5980999999999,4.11
628.6981000000001,3.54
628.7981,2.79
628.8981,1.38
628.9981,0.81
629.0980999999999,-2.01
629.1981000000001,-6.81
629.2981,-8.03
629.3981,-2.67
629.4981,-0.03
629.5980999999999,2.51
629.6981000000001,3.45
629.7981,4.58
629.8981,4.58
629.9981,4.77
630.0980999999999,3.73
630.1981000000001,3.82
630.2981,3.82
630.3981,3.82
630.4981,4.11
630.5980999999999,3.73
630.6981000000001,4.29
630.7981,4.58
630.8981,4.2
630.9981,4.67
631.0980999999999,4.86
631.1981000000001,5.42
631.2981,5.61
631.3981,5.8
631.4981,5.89
631.5980999999999,6.27
631.6981000000001,6.37
631.7981,6.46
631.8981,6.74
631.9981,6.08
632.0980999999999,7.59
632.1981000000001,6.55
632.2981,6.55
632.3981,6.37
632.4981,6.27
632.5980999999999,4.95
632.6981000000001,5.52
632.7981,4.2
632.8981,4.77
632.9981,3.82
633.0980999999999,3.64
633.1981000000001,3.26
633.2981,4.01
633.3981,4.39
633.4981,4.39
633.5980999999999,4.29
633.6981000000001,3.17
633.7981,3.26
633.8981,4.48
633.9981,4.48
634.0980999999999,3.92
634.1981000000001,4.39
634.2981,4.48
634.3981,4.2
634.4981,4.39
634.5980999999999,4.39
634.6981000000001,4.29
634.7981,3.54
634.8981,2.13
634.9981,0.06
635.0980999999999,-3.99
635.1981000000001,-7.38
635.2981,-7.19
635.3981,-2.58
635.4981,1.38
635.5980999999999,3.54
635.6981000000001,4.58
635.7981,5.33
635.8981,7.21
635.9981,6.55
636.0980999999999,7.31
636.1981000000001,7.49
636.2981,7.12
636.3981,6.84
636.4981,6.65
636.5980999999999,6.84
636.6981000000001,6.74
636.7981,6.55
636.8981,6.46
636.9981,5.61
637.0980999999999,6.27
637.1981000000001,5.61
637.2981,5.24
637.3981,4.29
637.4981,3.45
637.5980999999999,4.01
637.6981000000001,3.73
637.7981,1.94
637.8981,2.6
637.9981,3.07
638.0980999999999,2.79
638.1981000000001,3.26
638.2981,3.35
638.3981,3.26
638.4981,3.17
638.5980999999999,3.73
638.6981000000001,4.2
638.7981,3.73
638.8981,4.11
638.9981,4.29
639.0980999999999,4.67
639.1981000000001,4.77
639.2981,4.95
639.3981,5.61
639.4981,6.37
639.5980999999999,5.42
639.6981000000001,7.12
639.7981,5.89
639.8981,6.74
639.9981,6.93
640.0980999999999,6.65
640.1981000000001,7.78
640.2981,7.87
640.3981,7.68
640.4981,6.93
640.5980999999999,6.84
640.6981000000001,5.99
640.7981,5.99
640.8981,3.73
640.9981,-0.32
641.0980999999999,-3.42
641.1981000000001,-7.66
641.2981,-4.93
641.3981,-0.98
641.4981,0.25
641.5980999999999,1.94
641.6981000000001,2.13
641.7981,2.69
641.8981,1.94
641.9981,-0.51
642.0980999999999,1.09
642.1981000000001,2.41
642.2981,2.69
642.3981,3.17
642.4981,3.64
642.5980999999999,4.86
642.6981000000001,5.05
642.7981,5.14
642.8981,5.14
642.9981,5.33
643.0980999999999,6.84
643.1981000000001,6.84
643.2981,7.87
643.3981,7.78
643.4981,7.87
643.5980999999999,7.68
643.6981000000001,7.12
643.7981,7.68
643.8981,7.49
643.9981,7.31
644.0980999999999,6.84
644.1981000000001,6.27
644.2981,6.84
644.3981,4.86
644.4981,5.52
644.5980999999999,5.14
644.6981000000001,5.05
644.7981,5.24
644.8981,5.33
644.9981,5.99
645.0980999999999,6.08
645.1981000000001,4.11
645.2981,5.33
645.3981,5.14
645.4981,4.58
645.5980999999999,4.95
645.6981000000001,4.67
645.7981,4.2
645.8981,3.35
645.9981,3.64
646.0980999999999,2.98
646.1981000000001,2.69
646.2981,2.22
646.3981,2.32
646.4981,3.07
646.5980999999999,4.2
646.6981000000001,3.17
646.7981,1.66
646.8981,0.72
646.9981,-1.54
647.0980999999999,-5.87
647.1981000000001,-7.56
647.2981,-2.48
647.3981,1.57
647.4981,3.64
647.5980999999999,5.14
647.6981000000001,5.99
647.7981,5.8
647.8981,7.4
647.9981,7.49
648.0980999999999,7.31
648.1981000000001,6.74
648.2981,7.12
648.3981,7.31
648.4981,6.93
648.5980999999999,7.02
648.6981000000001,5.89
648.7981,6.18
648.8981,5.61
648.9981,5.24
649.0980999999999,4.58
649.1981000000001,4.48
649.2981,4.86
649.3981,5.33
649.4981,4.29
649.5980999999999,4.48
649.6981000000001,4.29
649.7981,4.67
649.8981,4.39
649.9981,4.77
650.0980999999999,4.29
650.1981000000001,3.92
650.2981,3.82
650.3981,4.2
650.4981,3.92
650.5980999999999,3.92
650.6981000000001,3.35
650.7981,5.24
650.8981,5.14
650.9981,4.39
651.0980999999999,5.05
651.1981000000001,5.14
651.2981,5.8
651.3981,5.89
651.4981,5.24
651.5980999999999,6.37
651.6981000000001,5.61
651.7981,5.89
651.8981,5.99
651.9981,5.61
652.0980999999999,6.46
652.1981000000001,6.37
652.2981,7.21
652.3981,7.12
652.4981,6.46
652.5980999999999,6.93
652.6981000000001,7.02
652.7981,4.58
652.8981,2.69
652.9981,-1.63
653.0980999999999,-6.06
653.1981000000001,-5.78
653.2981,-1.07
653.3981,0.91
653.4981,2.79
653.5980999999999,3.82
653.6981000000001,4.77
653.7981,4.01
653.8981,4.11
653.9981,4.39
654.0980999999999,5.42
654.1981000000001,6.08
654.2981,5.42
654.3981,5.33
654.4981,5.8
654.5980999999999,5.8
654.6981000000001,4.95
654.7981,5.42
654.8981,5.42
654.9981,4.95
655.0980999999999,3.73
655.1981000000001,4.01
655.2981,4.2
655.3981,4.86
655.4981,4.77
655.5980999999999,4.77
655.6981000000001,5.24
655.7981,5.8
655.8981,5.8
655.9981,6.37
656.0980999999999,6.08
656.1981000000001,6.74
656.2981,8.44
656.3981,7.87
656.4981,7.59
656.5980999999999,8.15
656.6981000000001,7.12
656.7981,7.78
656.8981,8.06
656.9981,7.49
657.0980999999999,7.49
657.1981000000001,7.21
657.2981,6.84
657.3981,7.02
657.4981,6.74
657.5980999999999,4.86
657.6981000000001,5.52
657.7981,4.2
657.8981,4.58
657.9981,2.6
658.0980999999999,3.35
658.1981000000001,3.07
658.2981,2.79
658.3981,2.79
658.4981,4.29
658.5980999999999,3.92
658.6981000000001,3.17
658.7981,2.22
658.8981,0.25
658.9981,-3.8
659.0980999999999,-7.56
659.1981000000001,-4.55
659.2981,0.81
659.3981,2.69
659.4981,4.95
659.5980999999999,5.14
659.6981000000001,6.27
659.7981,6.74
659.8981,6.37
659.9981,5.89
660.0980999999999,6.93
660.1981000000001,6.27
660.2981,6.27
660.3981,6.55
660.4981,5.8
660.5980999999999,6.84
660.6981000000001,7.31
660.7981,7.4
660.8981,6.93
660.9981,7.21
661.0980999999999,7.02
661.1981000000001,7.12
661.2981,7.31
661.3981,7.21
661.4981,6.74
661.5980999999999,5.89
661.6981000000001,6.27
661.7981,4.86
661.8981,4.58
661.9981,4.58
662.0980999999999,4.77
662.1981000000001,4.11
662.2981,2.98
662.3981,3.07
662.4981,3.54
662.5980999999999,4.39
662.6981000000001,4.01
662.7981,4.2
662.8981,4.39
662.9981,3.82
663.0980999999999,4.2
663.1981000000001,5.14
663.2981,4.95
663.3981,6.84
663.4981,6.08
663.5980999999999,7.02
663.6981000000001,6.74
663.7981,6.74
663.8981,7.4
663.9981,7.02
664.0980999999999,7.12
664.1981000000001,7.31
664.2981,7.4
664.3981,7.02
664.4981,7.31
664.5980999999999,7.02
664.6981000000001,4.39
664.7981,2.32
664.8981,-0.51
664.9981,-4.93
665.0980999999999,-7.38
665.1981000000001,-3.33
665.2981,0.15
665.3981,2.69
665.4981,5.52
665.5980999999999,6.93
665.6981000000001,6.74
665.7981,6.65
665.8981,7.02
665.9981,6.18
666.0980999999999,6.93
666.1981000000001,6.55
666.2981,5.99
666.3981,5.89
666.4981,4.58
666.5980999999999,3.92
666.6981000000001,4.95
666.7981,3.35
666.8981,4.86
666.9981,4.2
667.0980999999999,4.29
667.1981000000001,4.01
667.2981,5.14
667.3981,6.27
667.4981,5.89
667.5980999999999,5.52
667.6981000000001,5.71
667.7981,5.8
667.8981,6.18
667.9981,5.89
668.0980999999999,6.46
668.1981000000001,6.84
668.2981,7.12
668.3981,6.74
668.4981,6.27
668.5980999999999,6.65
668.6981000000001,6.55
668.7981,6.27
668.8981,6.27
668.9981,6.74
669.0980999999999,6.08
669.1981000000001,5.89
669.2981,5.05
669.3981,5.61
669.4981,5.8
669.5980999999999,5.89
669.6981000000001,6.37
669.7981,6.65
669.8981,7.12
669.9981,7.4
670.0980999999999,7.68
670.1981000000001,8.44
670.2981,7.31
670.3981,6.93
670.4981,7.31
670.5980999999999,6.46
670.6981000000001,3.73
670.7981,2.6
670.8981,-1.35
670.9981,-6.25
671.0980999999999,-6.62
671.1981000000001,-2.58
671.2981,0.62
671.3981,2.79
671.4981,3.64
671.5980999999999,4.29
671.6981000000001,4.67
671.7981,4.67
671.8981,3.82
671.9981,4.77
672.0980999999999,5.05
672.1981000000001,5.24
672.2981,4.77
672.3981,4.48
672.4981,5.8
672.5980999999999,5.8
672.6981000000001,6.18
672.7981,5.99
672.8981,6.27
672.9981,6.74
673.0980999999999,6.55
673.1981000000001,6.55
673.2981,6.55
673.3981,7.4
673.4981,5.8
673.5980999999999,6.37
673.6981000000001,6.55
673.7981,5.52
673.8981,5.8
673.9981,5.61
674.0980999999999,6.08
674.1981000000001,6.08
674.2981,6.55
674.3981,5.71
674.4981,5.71
674.5980999999999,6.18
674.6981000000001,6.27
674.7981,6.27
674.8981,6.46
674.9981,5.14
675.0980999999999,5.33
675.1981000000001,5.89
675.2981,5.33
675.3981,6.27
675.4981,5.05
675.5980999999999,4.67
675.6981000000001,4.01
675.7981,3.45
675.8981,3.07
675.9981,3.35
676.0980999999999,3.35
676.1981000000001,4.48
676.2981,4.58
676.3981,5.33
676.4981,4.58
676.5980999999999,4.48
676.6981000000001,4.58
676.7981,2.41
676.8981,-0.69
676.9981,-5.4
677.0980999999999,-2.76
677.1981000000001,1.19
677.2981,3.64
677.3981,5.99
677.4981,7.31
677.5980999999999,8.15
677.6981000000001,7.68
677.7981,7.31
677.8981,7.4
677.9981,6.74
678.0980999999999,6.93
678.1981000000001,5.71
678.2981,6.46
678.3981,5.33
678.4981,4.86
678.5980999999999,5.33
678.6981000000001,4.86
678.7981,4.39
678.8981,5.14
678.9981,5.14
679.0980999999999,4.29
679.1981000000001,6.08
679.2981,5.61
679.3981,4.58
679.4981,6.08
679.5980999999999,5.33
679.6981000000001,5.24
679.7981,6.93
679.8981,5.52
679.9981,4.95
680.0980999999999,5.24
680.1981000000001,5.42
680.2981,5.42
680.3981,5.8
680.4981,5.33
680.5980999999999,4.95
680.6981000000001,5.24
680.7981,5.14
680.8981,4.86
680.9981,6.27
681.0980999999999,5.42
681.1981000000001,4.95
681.2981,6.65
681.3981,7.12
681.4981,6.27
681.5980999999999,7.21
681.6981000000001,7.02
681.7981,7.87
681.8981,7.87
681.9981,7.59
682.0980999999999,8.06
682.1981000000001,5.99
682.2981,7.49
682.3981,5.99
682.4981,5.24
682.5980999999999,2.69
682.6981000000001,1.19
682.7981,-1.73
682.8981,-7.19
682.9981,-10.86
