Frequency(MHz),Power(dBmV/100kHz)_20260202_204320
107.8981,-18.53
107.9981,-17.4
108.0981,-11.0
108.1981,-6.39
108.2981,-2.44
108.3981,0.01
108.4981,2.36
108.5981,2.08
108.6981,1.51
108.7981,1.23
108.8981,1.7
108.9981,0.85
109.0981,0.76
109.1981,-0.65
109.2981,-0.65
109.3981,-3.19
109.4981,-3.01
109.5981,-1.97
109.6981,-0.93
109.7981,0.38
109.8981,1.79
109.9981,1.61
110.0981,1.32
110.1981,1.79
110.2981,2.08
110.3981,0.48
110.4981,0.57
110.5981,-0.37
110.6981,-0.75
110.7981,-2.63
110.8981,-2.63
110.9981,-0.84
111.0981,-0.37
111.1981,0.67
111.2981,0.19
111.3981,0.57
111.4981,-0.75
111.5981,1.32
111.6981,1.7
111.7981,2.17
111.8981,3.11
111.9981,2.83
112.0981,2.74
112.1981,0.29
112.2981,-0.75
112.3981,-1.31
112.4981,-1.41
112.5981,-1.31
112.6981,0.29
112.7981,1.79
112.8981,1.51
112.9981,1.61
113.0981,2.27
113.1981,2.92
113.2981,3.87
113.3981,2.92
113.4981,1.98
113.5981,-1.12
113.6981,-3.66
113.7981,-7.05
113.8981,-14.49
113.9981,-18.53
114.0981,-19.95
114.1981,-21.17
114.2981,-22.86
114.3981,-23.05
114.4981,-22.77
114.5981,-22.3
114.6981,-21.83
114.7981,-21.64
114.8981,-24.93
114.9981,-25.5
115.0981,-25.59
115.1981,-25.59
115.2981,-25.59
115.3981,-25.69
115.4981,-26.06
115.5981,-26.72
115.6981,-27.66
115.7981,-27.76
115.8981,-26.82
115.9981,-25.88
116.0981,-24.93
116.1981,-24.46
116.2981,-24.37
116.3981,-24.28
116.4981,-24.56
116.5981,-24.75
116.6981,-24.56
116.7981,-24.46
116.8981,-24.56
116.9981,-25.03
117.0981,-25.78
117.1981,-26.82
117.2981,-27.66
117.3981,-27.66
117.4981,-27.1
117.5981,-26.35
117.6981,-26.25
117.7981,-26.16
117.8981,-26.35
117.9981,-26.44
118.0981,-26.25
118.1981,-25.69
118.2981,-25.12
118.3981,-24.84
118.4981,-24.84
118.5981,-25.22
118.6981,-25.78
118.7981,-26.63
118.8981,-26.35
118.9981,-24.18
119.0981,-23.62
119.1981,-23.05
119.2981,-22.11
119.3981,-21.17
119.4981,-20.32
119.5981,-19.76
119.6981,-17.69
119.7981,-16.84
119.8981,-15.43
119.9981,-11.85
120.0981,-6.02
120.1981,-2.72
120.2981,-1.22
120.3981,-0.37
120.4981,-0.37
120.5981,-0.65
120.6981,-0.46
120.7981,0.29
120.8981,0.57
120.9981,0.57
121.0981,1.23
121.1981,1.98
121.2981,1.98
121.3981,2.08
121.4981,2.74
121.5981,3.39
121.6981,4.15
121.7981,2.83
121.8981,1.89
121.9981,0.67
122.0981,-1.31
122.1981,-3.85
122.2981,-4.42
122.3981,-3.57
122.4981,-2.35
122.5981,0.48
122.6981,0.57
122.7981,1.23
122.8981,1.7
122.9981,1.98
123.0981,1.79
123.1981,0.95
123.2981,0.67
123.3981,1.14
123.4981,0.67
123.5981,0.1
123.6981,-0.18
123.7981,-1.41
123.8981,-0.75
123.9981,-1.41
124.0981,-0.37
124.1981,1.04
124.2981,1.04
124.3981,1.79
124.4981,2.83
124.5981,3.02
124.6981,2.17
124.7981,3.11
124.8981,1.98
124.9981,1.32
125.0981,1.04
125.1981,0.85
125.2981,-1.12
125.3981,-2.72
125.4981,-3.85
125.5981,-5.55
125.6981,-7.24
125.7981,-9.03
125.8981,-12.32
125.9981,-8.09
126.0981,-4.42
126.1981,-1.69
126.2981,-0.65
126.3981,0.48
126.4981,0.1
126.5981,0.1
126.6981,-0.09
126.7981,-1.59
126.8981,-2.06
126.9981,-1.41
127.0981,-1.78
127.1981,-1.03
127.2981,-1.22
127.3981,-0.56
127.4981,-0.65
127.5981,0.01
127.6981,0.57
127.7981,1.23
127.8981,1.61
127.9981,1.32
128.0981,0.67
128.1981,-0.28
128.2981,-1.03
128.3981,-1.31
128.4981,-1.59
128.5981,-0.75
128.6981,-1.03
128.7981,-0.37
128.8981,-0.84
128.9981,-0.09
129.0981,0.95
129.1981,1.7
129.2981,2.74
129.3981,2.74
129.4981,3.02
129.5981,0.67
129.6981,-0.09
129.7981,0.19
129.8981,0.38
129.9981,1.23
130.0981,-0.18
130.1981,0.57
130.2981,-0.46
130.3981,-1.41
130.4981,-1.78
130.5981,-1.97
130.6981,-1.97
130.7981,-0.37
130.8981,-0.18
130.9981,0.01
131.0981,0.76
131.1981,0.57
131.2981,0.01
131.3981,0.19
131.4981,-1.78
131.5981,-3.76
131.6981,-7.24
131.7981,-10.91
131.8981,-11.85
131.9981,-10.72
132.0981,-9.5
132.1981,-8.18
132.2981,-6.86
132.3981,-5.73
132.4981,-4.32
132.5981,-2.44
132.6981,-0.46
132.7981,1.98
132.8981,4.71
132.9981,9.14
133.0981,21.75
133.1981,13.94
133.2981,4.99
133.3981,1.14
133.4981,-1.59
133.5981,-3.57
133.6981,-5.83
133.7981,-7.8
133.8981,-9.59
133.9981,-10.16
134.0981,-9.88
134.1981,-9.5
134.2981,-9.31
134.3981,-9.69
134.4981,-10.35
134.5981,-11.38
134.6981,-12.7
134.7981,-14.11
134.8981,-15.33
134.9981,-16.46
135.0981,-17.4
135.1981,-18.16
135.2981,-18.72
135.3981,-18.53
135.4981,-17.97
135.5981,-17.12
135.6981,-16.28
135.7981,-15.99
135.8981,-16.46
135.9981,-16.56
136.0981,-16.84
136.1981,-17.5
136.2981,-18.63
136.3981,-19.38
136.4981,-20.23
136.5981,-20.7
136.6981,-21.08
136.7981,-21.08
136.8981,-20.79
136.9981,-20.51
137.0981,-19.85
137.1981,-19.1
137.2981,-18.44
137.3981,-17.59
137.4981,-16.46
137.5981,-15.24
137.6981,-14.3
137.7981,-10.35
137.8981,-9.59
137.9981,-6.49
138.0981,-4.89
138.1981,-3.38
138.2981,-4.13
138.3981,-3.01
138.4981,-1.69
138.5981,-1.78
138.6981,-1.31
138.7981,-0.37
138.8981,-0.37
138.9981,-0.46
139.0981,-0.37
139.1981,-0.46
139.2981,-0.09
139.3981,-0.09
139.4981,-0.93
139.5981,-1.41
139.6981,-3.66
139.7981,-3.29
139.8981,-3.01
139.9981,-3.29
140.0981,-2.06
140.1981,-0.46
140.2981,-0.93
140.3981,-0.28
140.4981,-0.28
140.5981,0.19
140.6981,0.76
140.7981,0.95
140.8981,1.23
140.9981,1.51
141.0981,-0.37
141.1981,-0.65
141.2981,-1.03
141.3981,-2.16
141.4981,-2.72
141.5981,-2.91
141.6981,-1.78
141.7981,-1.41
141.8981,-0.56
141.9981,1.04
142.0981,0.29
142.1981,0.29
142.2981,1.23
142.3981,-0.09
142.4981,-0.18
142.5981,0.38
142.6981,0.19
142.7981,-0.28
142.8981,-0.56
142.9981,-1.22
143.0981,-1.12
143.1981,-0.46
143.2981,-1.78
143.3981,-2.35
143.4981,-3.76
143.5981,-6.02
143.6981,-9.31
143.7981,-12.6
143.8981,-9.69
143.9981,-4.7
144.0981,-2.44
144.1981,-1.12
144.2981,-0.46
144.3981,-0.09
144.4981,0.29
144.5981,-0.56
144.6981,-1.5
144.7981,-3.19
144.8981,-3.48
144.9981,-1.78
145.0981,-1.12
145.1981,-0.28
145.2981,-0.18
145.3981,0.67
145.4981,-0.37
145.5981,-0.18
145.6981,-0.46
145.7981,0.48
145.8981,2.55
145.9981,2.17
146.0981,1.42
146.1981,0.67
146.2981,-0.75
146.3981,-1.78
146.4981,-2.82
146.5981,-2.06
146.6981,-2.35
146.7981,-1.22
146.8981,-0.93
146.9981,-0.28
147.0981,-0.84
147.1981,-1.59
147.2981,-0.09
147.3981,0.85
147.4981,0.38
147.5981,0.19
147.6981,-0.93
147.7981,-0.65
147.8981,-3.19
147.9981,-3.57
148.0981,-3.19
148.1981,-1.88
148.2981,-1.31
148.3981,-0.84
148.4981,-1.78
148.5981,0.48
148.6981,0.95
148.7981,0.38
148.8981,1.7
148.9981,0.95
149.0981,0.19
149.1981,0.38
149.2981,-0.18
149.3981,-2.63
149.4981,-5.83
149.5981,-8.65
149.6981,-13.92
149.7981,-17.31
149.8981,-12.7
149.9981,-7.99
150.0981,-3.76
150.1981,-0.56
150.2981,0.38
150.3981,1.61
150.4981,0.95
150.5981,0.85
150.6981,-0.09
150.7981,-0.46
150.8981,-1.12
150.9981,-1.03
151.0981,-1.97
151.1981,-2.63
151.2981,-4.04
151.3981,-3.19
151.4981,-2.16
151.5981,-0.84
151.6981,0.76
151.7981,1.14
151.8981,1.14
151.9981,0.1
152.0981,0.29
152.1981,-0.18
152.2981,0.38
152.3981,-0.65
152.4981,-0.18
152.5981,0.01
152.6981,-2.91
152.7981,-2.16
152.8981,-3.57
152.9981,-2.72
153.0981,-3.1
153.1981,-1.88
153.2981,-1.03
153.3981,-0.56
153.4981,0.1
153.5981,0.19
153.6981,0.76
153.7981,-0.75
153.8981,0.85
153.9981,0.19
154.0981,-1.59
154.1981,-0.84
154.2981,-1.78
154.3981,-2.82
154.4981,-2.63
154.5981,-2.16
154.6981,-1.88
154.7981,-1.97
154.8981,-1.5
154.9981,-1.03
155.0981,-0.37
155.1981,-0.37
155.2981,0.01
155.3981,-1.69
155.4981,-5.08
155.5981,-7.99
155.6981,-13.36
155.7981,-14.02
155.8981,-9.31
155.9981,-5.36
156.0981,-3.76
156.1981,-3.01
156.2981,-1.59
156.3981,-1.41
156.4981,-2.44
156.5981,-1.03
156.6981,0.19
156.7981,-0.09
156.8981,0.38
156.9981,1.04
157.0981,0.85
157.1981,1.04
157.2981,-0.65
157.3981,-1.12
157.4981,-1.69
157.5981,-1.5
157.6981,-2.53
157.7981,-2.72
157.8981,-3.19
157.9981,-3.38
158.0981,-3.48
158.1981,-2.72
158.2981,-1.69
158.3981,-0.84
158.4981,-0.93
158.5981,-0.18
158.6981,-0.28
158.7981,-0.46
158.8981,0.95
158.9981,-1.12
159.0981,-0.56
159.1981,-1.59
159.2981,-1.97
159.3981,-2.44
159.4981,-3.76
159.5981,-3.76
159.6981,-1.97
159.7981,-1.22
159.8981,-0.09
159.9981,0.76
160.0981,1.32
160.1981,1.32
160.2981,1.04
160.3981,1.14
160.4981,0.48
160.5981,-0.37
160.6981,-0.75
160.7981,-1.59
160.8981,-2.53
160.9981,-2.53
161.0981,-3.48
161.1981,-3.95
161.2981,-2.35
161.3981,-4.42
161.4981,-6.58
161.5981,-10.16
161.6981,-14.11
161.7981,-12.23
161.8981,-6.77
161.9981,-3.48
162.0981,-1.59
162.1981,-0.56
162.2981,-1.41
162.3981,-2.44
162.4981,-3.57
162.5981,-4.98
162.6981,-3.66
162.7981,-3.57
162.8981,-2.53
162.9981,-1.97
163.0981,-0.65
163.1981,0.19
163.2981,0.95
163.3981,1.42
163.4981,0.76
163.5981,0.38
163.6981,0.38
163.7981,-2.35
163.8981,-4.04
163.9981,-3.85
164.0981,-2.63
164.1981,-1.78
164.2981,-1.41
164.3981,-2.82
164.4981,-1.88
164.5981,-0.84
164.6981,-0.56
164.7981,0.19
164.8981,1.51
164.9981,1.7
165.0981,1.14
165.1981,0.76
165.2981,0.57
165.3981,-0.84
165.4981,-0.75
165.5981,-1.78
165.6981,-3.19
165.7981,-3.29
165.8981,-3.01
165.9981,-3.19
166.0981,-2.72
166.1981,-2.91
166.2981,-2.72
166.3981,-2.44
166.4981,-1.22
166.5981,-1.41
166.6981,-1.59
166.7981,-1.22
166.8981,-1.88
166.9981,-1.31
167.0981,-2.35
167.1981,-5.45
167.2981,-6.2
167.3981,-7.9
167.4981,-9.4
167.5981,-12.13
167.6981,-14.68
167.7981,-10.06
167.8981,-4.89
167.9981,-3.29
168.0981,-1.78
168.1981,0.19
168.2981,0.95
168.3981,0.76
168.4981,1.51
168.5981,1.32
168.6981,0.01
168.7981,-1.88
168.8981,-2.25
168.9981,-2.53
169.0981,-2.63
169.1981,-2.35
169.2981,-2.35
169.3981,-2.44
169.4981,-2.35
169.5981,-1.69
169.6981,-0.46
169.7981,-1.31
169.8981,0.01
169.9981,-0.46
170.0981,-0.93
170.1981,-1.5
170.2981,-2.72
170.3981,-3.95
170.4981,-3.66
170.5981,-4.51
170.6981,-4.32
170.7981,-3.57
170.8981,-3.38
170.9981,-2.53
171.0981,-1.31
171.1981,-1.22
171.2981,-1.12
171.3981,-0.75
171.4981,-0.56
171.5981,-0.65
171.6981,-0.28
171.7981,-0.93
171.8981,-1.5
171.9981,-2.35
172.0981,-2.63
172.1981,-2.72
172.2981,-3.01
172.3981,-3.38
172.4981,-3.01
172.5981,-1.5
172.6981,-0.09
172.7981,-0.75
172.8981,0.19
172.9981,1.14
173.0981,0.38
173.1981,0.57
173.2981,-0.93
173.3981,-3.57
173.4981,-6.58
173.5981,-12.6
173.6981,-13.73
173.7981,-11.0
173.8981,-9.12
173.9981,-8.93
174.0981,-6.3
174.1981,-3.85
174.2981,-3.85
174.3981,-2.44
174.4981,-1.69
174.5981,-2.16
174.6981,-2.25
174.7981,-2.53
174.8981,-2.63
174.9981,-1.69
175.0981,-2.63
175.1981,-3.01
175.2981,-3.48
175.3981,-4.89
175.4981,-6.2
175.5981,-6.02
175.6981,-4.7
175.7981,-3.1
175.8981,0.1
175.9981,0.38
176.0981,0.95
176.1981,0.95
176.2981,0.01
176.3981,1.04
176.4981,1.79
176.5981,0.38
176.6981,-0.37
176.7981,-1.78
176.8981,-1.5
176.9981,-2.91
177.0981,-3.66
177.1981,-3.76
177.2981,-3.48
177.3981,-2.82
177.4981,-2.16
177.5981,-1.59
177.6981,-1.97
177.7981,-2.35
177.8981,-0.93
177.9981,-1.03
178.0981,-0.84
178.1981,-0.84
178.2981,-1.59
178.3981,-2.35
178.4981,-3.1
178.5981,-5.73
178.6981,-6.58
178.7981,-7.15
178.8981,-6.11
178.9981,-5.73
179.0981,-3.19
179.1981,-2.72
179.2981,-3.95
179.3981,-7.15
179.4981,-8.75
179.5981,-13.73
179.6981,-13.17
179.7981,-9.4
179.8981,-7.33
179.9981,-4.6
180.0981,-3.19
180.1981,-3.1
180.2981,-2.63
180.3981,-3.66
180.4981,-4.42
180.5981,-2.91
180.6981,-1.5
180.7981,-0.84
180.8981,-0.46
180.9981,0.29
181.0981,-0.65
181.1981,0.48
181.2981,-0.46
181.3981,-1.12
181.4981,-1.22
181.5981,-1.22
181.6981,-1.03
181.7981,-1.41
181.8981,-2.53
181.9981,-2.72
182.0981,-4.32
182.1981,-4.6
182.2981,-4.51
182.3981,-3.57
182.4981,-3.48
182.5981,-4.32
182.6981,-3.1
182.7981,-3.57
182.8981,-2.72
182.9981,-2.25
183.0981,-2.91
183.1981,-4.79
183.2981,-5.64
183.3981,-6.96
183.4981,-7.05
183.5981,-6.96
183.6981,-5.92
183.7981,-4.89
183.8981,-3.48
183.9981,-2.16
184.0981,-2.06
184.1981,-1.31
184.2981,-0.28
184.3981,0.1
184.4981,-0.18
184.5981,-0.37
184.6981,-0.75
184.7981,-0.75
184.8981,-1.88
184.9981,-1.97
185.0981,-2.72
185.1981,-4.13
185.2981,-6.02
185.3981,-8.75
185.4981,-13.92
185.5981,-17.03
185.6981,-12.79
185.7981,-7.8
185.8981,-3.76
185.9981,-1.69
186.0981,-1.03
186.1981,-2.35
186.2981,-2.16
186.3981,-3.1
186.4981,-3.85
186.5981,-4.13
186.6981,-4.98
186.7981,-6.11
186.8981,-6.86
186.9981,-8.46
187.0981,-7.43
187.1981,-4.7
187.2981,-3.57
187.3981,-1.78
187.4981,-1.5
187.5981,-1.97
187.6981,-1.31
187.7981,-2.44
187.8981,-2.44
187.9981,-3.48
188.0981,-4.42
188.1981,-5.64
188.2981,-5.73
188.3981,-6.02
188.4981,-6.58
188.5981,-4.32
188.6981,-3.57
188.7981,-2.91
188.8981,-1.59
188.9981,-0.75
189.0981,-0.09
189.1981,0.01
189.2981,-0.28
189.3981,-0.65
189.4981,-1.31
189.5981,-1.69
189.6981,-1.78
189.7981,-2.72
189.8981,-3.95
189.9981,-4.51
190.0981,-3.76
190.1981,-4.51
190.2981,-4.89
190.3981,-4.32
190.4981,-3.38
190.5981,-2.91
190.6981,-3.1
190.7981,-2.44
190.8981,-2.16
190.9981,-3.66
191.0981,-4.7
191.1981,-7.05
191.2981,-10.53
191.3981,-14.86
191.4981,-22.96
191.5981,-23.99
191.6981,-17.88
191.7981,-12.79
191.8981,-9.31
191.9981,-6.68
192.0981,-3.95
192.1981,-3.57
192.2981,-2.35
192.3981,-0.93
192.4981,0.29
192.5981,-0.75
192.6981,-1.03
192.7981,-1.12
192.8981,-2.91
192.9981,-3.01
193.0981,-3.76
193.1981,-4.42
193.2981,-4.32
193.3981,-2.82
193.4981,-1.31
193.5981,-3.19
193.6981,-3.38
193.7981,-2.72
193.8981,-2.53
193.9981,-2.91
194.0981,-2.25
194.1981,-2.35
194.2981,-1.22
194.3981,-2.82
194.4981,-4.23
194.5981,-6.02
194.6981,-7.15
194.7981,-8.18
194.8981,-9.22
194.9981,-7.99
195.0981,-8.18
195.1981,-7.9
195.2981,-7.05
195.3981,-5.26
195.4981,-4.7
195.5981,-4.89
195.6981,-4.98
195.7981,-4.23
195.8981,-4.32
195.9981,-4.51
196.0981,-4.6
196.1981,-4.6
196.2981,-6.58
196.3981,-7.99
196.4981,-9.69
196.5981,-9.59
196.6981,-7.24
196.7981,-5.26
196.8981,-3.76
196.9981,-3.57
197.0981,-3.57
197.1981,-4.79
197.2981,-7.24
197.3981,-9.78
197.4981,-13.92
197.5981,-11.95
197.6981,-8.56
197.7981,-5.73
197.8981,-5.08
197.9981,-6.3
198.0981,-6.68
198.1981,-4.89
198.2981,-4.23
198.3981,-3.48
198.4981,-4.13
198.5981,-4.6
198.6981,-4.79
198.7981,-4.7
198.8981,-4.04
198.9981,-3.19
199.0981,-3.19
199.1981,-3.38
199.2981,-3.85
199.3981,-5.92
199.4981,-8.93
199.5981,-11.95
199.6981,-17.5
199.7981,-17.03
199.8981,-14.02
199.9981,-9.97
200.0981,-7.52
200.1981,-5.73
200.2981,-4.51
200.3981,-4.32
200.4981,-3.1
200.5981,-3.29
200.6981,-2.91
200.7981,-3.1
200.8981,-2.53
200.9981,-4.32
201.0981,-4.6
201.1981,-4.7
201.2981,-5.64
201.3981,-6.3
201.4981,-7.15
201.5981,-7.05
201.6981,-5.55
201.7981,-3.66
201.8981,-3.19
201.9981,-3.1
202.0981,-2.44
202.1981,-2.44
202.2981,-3.1
202.3981,-2.82
202.4981,-2.82
202.5981,-5.08
202.6981,-4.7
202.7981,-6.86
202.8981,-10.25
202.9981,-16.37
203.0981,-15.9
203.1981,-12.98
203.2981,-14.02
203.3981,-15.99
203.4981,-19.0
203.5981,-14.96
203.6981,-10.82
203.7981,-8.75
203.8981,-6.77
203.9981,-6.02
204.0981,-6.2
204.1981,-6.86
204.2981,-9.22
204.3981,-10.91
204.4981,-12.04
204.5981,-13.26
204.6981,-11.57
204.7981,-9.31
204.8981,-6.96
204.9981,-6.96
205.0981,-3.95
205.1981,-3.66
205.2981,-4.42
205.3981,-3.19
205.4981,-3.48
205.5981,-3.38
205.6981,-4.51
205.7981,-4.51
205.8981,-4.89
205.9981,-6.58
206.0981,-7.62
206.1981,-8.37
206.2981,-7.71
206.3981,-6.86
206.4981,-5.92
206.5981,-4.7
206.6981,-3.48
206.7981,-2.82
206.8981,-3.57
206.9981,-4.13
207.0981,-5.17
207.1981,-5.83
207.2981,-6.68
207.3981,-7.24
207.4981,-8.56
207.5981,-9.59
207.6981,-11.66
207.7981,-14.49
207.8981,-21.83
207.9981,-23.43
208.0981,-15.62
208.1981,-11.48
208.2981,-8.09
208.3981,-5.92
208.4981,-6.11
208.5981,-5.17
208.6981,-5.17
208.7981,-5.55
208.8981,-5.92
208.9981,-7.52
209.0981,-8.75
209.1981,-10.44
209.2981,-12.51
209.3981,-18.63
209.4981,-20.7
209.5981,-15.8
209.6981,-13.08
209.7981,-9.12
209.8981,-6.77
209.9981,-4.6
210.0981,-4.23
210.1981,-4.42
210.2981,-3.95
210.3981,-4.79
210.4981,-4.42
210.5981,-5.26
210.6981,-5.45
210.7981,-6.96
210.8981,-8.18
210.9981,-9.88
211.0981,-13.45
211.1981,-18.06
211.2981,-18.16
211.3981,-13.26
211.4981,-9.78
211.5981,-7.43
211.6981,-6.68
211.7981,-7.62
211.8981,-6.86
211.9981,-7.15
212.0981,-6.3
212.1981,-7.9
212.2981,-8.65
212.3981,-11.1
212.4981,-14.39
212.5981,-20.04
212.6981,-24.37
212.7981,-16.75
212.8981,-13.17
212.9981,-10.63
213.0981,-8.65
213.1981,-6.68
213.2981,-6.3
213.3981,-5.36
213.4981,-5.64
213.5981,-5.64
213.6981,-6.49
213.7981,-7.15
213.8981,-9.22
213.9981,-9.97
214.0981,-9.12
214.1981,-9.03
214.2981,-9.22
214.3981,-7.71
214.4981,-8.28
214.5981,-9.4
214.6981,-7.71
214.7981,-6.49
214.8981,-4.79
214.9981,-4.89
215.0981,-5.45
215.1981,-7.99
215.2981,-12.51
215.3981,-17.97
215.4981,-18.91
215.5981,-15.8
215.6981,-16.46
215.7981,-18.72
215.8981,-21.92
215.9981,-27.95
216.0981,-19.48
216.1981,-13.73
216.2981,-10.53
216.3981,-8.09
216.4981,-7.43
216.5981,-7.24
216.6981,-8.28
216.7981,-9.59
216.8981,-10.63
216.9981,-11.29
217.0981,-13.08
217.1981,-11.29
217.2981,-12.23
217.3981,-12.04
217.4981,-11.38
217.5981,-11.85
217.6981,-10.63
217.7981,-8.18
217.8981,-6.58
217.9981,-5.83
218.0981,-5.55
218.1981,-5.45
218.2981,-5.64
218.3981,-5.45
218.4981,-5.55
218.5981,-6.2
218.6981,-8.18
218.7981,-10.25
218.8981,-12.98
218.9981,-20.79
219.0981,-26.25
219.1981,-17.12
219.2981,-14.2
219.3981,-12.42
219.4981,-12.89
219.5981,-12.51
219.6981,-11.38
219.7981,-10.25
219.8981,-9.5
219.9981,-8.65
220.0981,-9.03
220.1981,-9.88
220.2981,-10.63
220.3981,-13.64
220.4981,-17.22
220.5981,-19.19
220.6981,-21.64
220.7981,-22.77
220.8981,-22.3
220.9981,-20.04
221.0981,-17.78
221.1981,-16.84
221.2981,-18.91
221.3981,-21.26
221.4981,-17.22
221.5981,-13.73
221.6981,-11.66
221.7981,-11.66
221.8981,-12.32
221.9981,-14.11
222.0981,-17.31
222.1981,-16.75
222.2981,-13.45
222.3981,-11.76
222.4981,-9.78
222.5981,-9.03
222.6981,-7.8
222.7981,-7.62
222.8981,-7.52
222.9981,-6.68
223.0981,-6.11
223.1981,-6.68
223.2981,-6.58
223.3981,-6.49
223.4981,-7.43
223.5981,-7.8
223.6981,-8.65
223.7981,-10.72
223.8981,-13.26
223.9981,-16.28
224.0981,-19.48
224.1981,-17.31
224.2981,-14.77
224.3981,-13.45
224.4981,-12.04
224.5981,-10.63
224.6981,-10.63
224.7981,-9.78
224.8981,-9.5
224.9981,-10.82
225.0981,-12.7
225.1981,-15.52
225.2981,-20.7
225.3981,-21.17
225.4981,-15.62
225.5981,-13.73
225.6981,-10.91
225.7981,-9.88
225.8981,-8.37
225.9981,-7.8
226.0981,-6.96
226.1981,-7.05
226.2981,-7.15
226.3981,-6.68
226.4981,-7.62
226.5981,-7.43
226.6981,-8.09
226.7981,-9.69
226.8981,-12.7
226.9981,-16.93
227.0981,-24.56
227.1981,-28.51
227.2981,-28.23
227.3981,-27.0
227.4981,-20.04
227.5981,-15.15
227.6981,-13.64
227.7981,-11.76
227.8981,-9.31
227.9981,-9.69
228.0981,-9.4
228.1981,-8.56
228.2981,-10.72
228.3981,-12.04
228.4981,-14.3
228.5981,-19.66
228.6981,-25.69
228.7981,-20.7
228.8981,-15.15
228.9981,-13.92
229.0981,-13.36
229.1981,-12.42
229.2981,-12.7
229.3981,-13.64
229.4981,-12.89
229.5981,-12.23
229.6981,-12.98
229.7981,-13.83
229.8981,-16.09
229.9981,-18.82
230.0981,-21.45
230.1981,-23.15
230.2981,-20.89
230.3981,-17.5
230.4981,-14.58
230.5981,-12.98
230.6981,-9.4
230.7981,-7.05
230.8981,-6.77
230.9981,-6.11
231.0981,-5.83
231.1981,-6.39
231.2981,-7.62
231.3981,-9.59
231.4981,-11.1
231.5981,-12.13
231.6981,-14.02
231.7981,-15.62
231.8981,-18.25
231.9981,-20.79
232.0981,-19.0
232.1981,-15.9
232.2981,-13.17
232.3981,-13.55
232.4981,-14.02
232.5981,-16.28
232.6981,-18.44
232.7981,-19.0
232.8981,-16.75
232.9981,-15.33
233.0981,-16.93
233.1981,-20.6
233.2981,-25.97
233.3981,-28.7
233.4981,-28.32
233.5981,-21.92
233.6981,-15.52
233.7981,-11.76
233.8981,-9.78
233.9981,-8.09
234.0981,-7.52
234.1981,-7.15
234.2981,-7.33
234.3981,-7.71
234.4981,-7.8
234.5981,-7.99
234.6981,-9.88
234.7981,-11.57
234.8981,-13.92
234.9981,-18.06
235.0981,-20.79
235.1981,-19.66
235.2981,-16.75
235.3981,-14.58
235.4981,-13.45
235.5981,-13.36
235.6981,-10.82
235.7981,-11.29
235.8981,-9.97
235.9981,-10.72
236.0981,-12.42
236.1981,-13.83
236.2981,-14.58
236.3981,-16.37
236.4981,-17.5
236.5981,-19.1
236.6981,-23.05
236.7981,-30.58
236.8981,-25.97
236.9981,-18.06
237.0981,-12.98
237.1981,-11.29
237.2981,-9.4
237.3981,-8.75
237.4981,-9.22
237.5981,-10.44
237.6981,-12.51
237.7981,-16.93
237.8981,-23.71
237.9981,-40.56
238.0981,-23.33
238.1981,-18.44
238.2981,-16.28
238.3981,-13.92
238.4981,-11.66
238.5981,-10.16
238.6981,-10.06
238.7981,-8.18
238.8981,-9.4
238.9981,-10.06
239.0981,-13.17
239.1981,-17.12
239.2981,-21.64
239.3981,-18.63
239.4981,-14.39
239.5981,-13.26
239.6981,-14.02
239.7981,-14.02
239.8981,-17.12
239.9981,-20.04
240.0981,-18.91
240.1981,-14.49
240.2981,-11.48
240.3981,-10.06
240.4981,-10.06
240.5981,-9.88
240.6981,-9.78
240.7981,-11.1
240.8981,-12.23
240.9981,-16.28
241.0981,-22.58
241.1981,-31.99
241.2981,-19.1
241.3981,-15.43
241.4981,-12.32
241.5981,-10.82
241.6981,-11.19
241.7981,-9.88
241.8981,-10.82
241.9981,-9.78
242.0981,-9.22
242.1981,-8.56
242.2981,-7.99
242.3981,-9.03
242.4981,-9.03
242.5981,-9.78
242.6981,-11.76
242.7981,-13.64
242.8981,-17.12
242.9981,-21.83
243.0981,-20.04
243.1981,-17.59
243.2981,-14.39
243.3981,-12.51
243.4981,-10.91
243.5981,-10.25
243.6981,-9.78
243.7981,-8.75
243.8981,-8.56
243.9981,-8.09
244.0981,-8.65
244.1981,-10.16
244.2981,-12.04
244.3981,-16.93
244.4981,-25.78
244.5981,-19.38
244.6981,-14.96
244.7981,-13.08
244.8981,-12.79
244.9981,-15.15
245.0981,-17.59
245.1981,-22.39
245.2981,-24.37
245.3981,-19.76
245.4981,-15.62
245.5981,-14.02
245.6981,-14.11
245.7981,-15.24
245.8981,-19.19
245.9981,-31.24
246.0981,-25.88
246.1981,-19.76
246.2981,-16.46
246.3981,-13.73
246.4981,-12.04
246.5981,-10.44
246.6981,-9.03
246.7981,-7.43
246.8981,-6.68
246.9981,-6.77
247.0981,-6.39
247.1981,-7.43
247.2981,-8.46
247.3981,-9.4
247.4981,-11.66
247.5981,-14.58
247.6981,-17.03
247.7981,-23.15
247.8981,-28.04
247.9981,-19.57
248.0981,-14.96
248.1981,-12.98
248.2981,-11.57
248.3981,-12.51
248.4981,-12.42
248.5981,-12.89
248.6981,-12.6
248.7981,-10.72
248.8981,-9.88
248.9981,-9.22
249.0981,-10.63
249.1981,-13.55
249.2981,-19.48
249.3981,-30.02
249.4981,-15.99
249.5981,-10.82
249.6981,-8.37
249.7981,-6.49
249.8981,-6.58
249.9981,-6.11
250.0981,-6.49
250.1981,-7.52
250.2981,-6.49
250.3981,-7.24
250.4981,-7.15
250.5981,-7.62
250.6981,-10.53
250.7981,-13.92
250.8981,-21.73
250.9981,-29.26
251.0981,-26.16
251.1981,-27.0
251.2981,-24.37
251.3981,-19.0
251.4981,-14.49
251.5981,-11.95
251.6981,-9.59
251.7981,-8.09
251.8981,-7.52
251.9981,-7.24
252.0981,-7.52
252.1981,-8.46
252.2981,-9.5
252.3981,-10.91
252.4981,-12.04
252.5981,-14.2
252.6981,-16.28
252.7981,-15.62
252.8981,-12.89
252.9981,-10.25
253.0981,-7.9
253.1981,-6.02
253.2981,-5.55
253.3981,-6.02
253.4981,-6.77
253.5981,-7.33
253.6981,-9.22
253.7981,-11.85
253.8981,-15.05
253.9981,-18.06
254.0981,-25.5
254.1981,-20.23
254.2981,-14.3
254.3981,-10.16
254.4981,-9.03
254.5981,-7.8
254.6981,-6.58
254.7981,-6.77
254.8981,-6.68
254.9981,-7.05
255.0981,-8.37
255.1981,-8.75
255.2981,-8.75
255.3981,-7.8
255.4981,-7.8
255.5981,-9.03
255.6981,-10.72
255.7981,-14.11
255.8981,-18.44
255.9981,-15.05
256.0981,-11.66
256.1981,-9.22
256.2981,-7.8
256.3981,-6.49
256.4981,-6.68
256.5981,-6.68
256.6981,-7.99
256.7981,-9.97
256.8981,-13.55
256.9981,-17.4
257.0981,-22.3
257.1981,-27.19
257.2981,-23.9
257.3981,-18.91
257.4981,-14.96
257.5981,-12.23
257.6981,-10.44
257.7981,-8.37
257.8981,-7.8
257.9981,-6.39
258.0981,-6.2
258.1981,-5.73
258.2981,-5.64
258.3981,-5.92
258.4981,-7.33
258.5981,-7.05
258.6981,-10.16
258.7981,-11.95
258.8981,-16.18
258.9981,-23.33
259.0981,-29.36
259.1981,-18.06
259.2981,-12.23
259.3981,-10.53
259.4981,-8.28
259.5981,-6.86
259.6981,-6.96
259.7981,-6.58
259.8981,-6.96
259.9981,-7.52
260.0981,-8.65
260.1981,-9.4
260.2981,-9.31
260.3981,-9.31
260.4981,-8.65
260.5981,-7.9
260.6981,-7.33
260.7981,-8.37
260.8981,-7.52
260.9981,-7.15
261.0981,-6.58
261.1981,-5.73
261.2981,-5.26
261.3981,-4.89
261.4981,-5.55
261.5981,-4.98
261.6981,-6.3
261.7981,-7.99
261.8981,-11.95
261.9981,-13.83
262.0981,-15.15
262.1981,-17.88
262.2981,-22.02
262.3981,-22.2
262.4981,-15.05
262.5981,-10.25
262.6981,-8.46
262.7981,-6.96
262.8981,-8.56
262.9981,-11.0
263.0981,-14.77
263.1981,-17.97
263.2981,-15.05
263.3981,-13.36
263.4981,-12.6
263.5981,-11.57
263.6981,-12.13
263.7981,-11.76
263.8981,-11.48
263.9981,-9.4
264.0981,-7.71
264.1981,-7.05
264.2981,-6.2
264.3981,-5.64
264.4981,-5.64
264.5981,-6.58
264.6981,-6.2
264.7981,-6.3
264.8981,-5.92
264.9981,-6.68
265.0981,-8.09
265.1981,-11.29
265.2981,-13.36
265.3981,-15.05
265.4981,-12.98
265.5981,-10.25
265.6981,-8.09
265.7981,-7.05
265.8981,-6.49
265.9981,-5.36
266.0981,-4.23
266.1981,-4.51
266.2981,-4.04
266.3981,-4.23
266.4981,-4.32
266.5981,-6.02
266.6981,-9.12
266.7981,-12.23
266.8981,-15.99
266.9981,-15.52
267.0981,-14.11
267.1981,-12.23
267.2981,-12.6
267.3981,-12.6
267.4981,-10.91
267.5981,-9.22
267.6981,-6.58
267.7981,-5.73
267.8981,-4.6
267.9981,-4.32
268.0981,-5.83
268.1981,-5.17
268.2981,-6.49
268.3981,-7.8
268.4981,-8.18
268.5981,-7.9
268.6981,-8.28
268.7981,-8.93
268.8981,-9.69
268.9981,-11.66
269.0981,-15.43
269.1981,-15.43
269.2981,-10.72
269.3981,-7.43
269.4981,-4.7
269.5981,-4.51
269.6981,-4.42
269.7981,-4.7
269.8981,-6.02
269.9981,-8.46
270.0981,-10.91
270.1981,-15.8
270.2981,-19.1
270.3981,-15.71
270.4981,-11.85
270.5981,-9.59
270.6981,-8.09
270.7981,-8.56
270.8981,-8.46
270.9981,-8.28
271.0981,-7.24
271.1981,-5.45
271.2981,-5.26
271.3981,-5.17
271.4981,-5.64
271.5981,-6.49
271.6981,-8.46
271.7981,-10.16
271.8981,-9.12
271.9981,-7.62
272.0981,-6.77
272.1981,-4.7
272.2981,-4.7
272.3981,-3.01
272.4981,-3.48
272.5981,-3.76
272.6981,-2.91
272.7981,-3.57
272.8981,-3.85
272.9981,-4.7
273.0981,-6.86
273.1981,-8.84
273.2981,-9.88
273.3981,-9.97
273.4981,-7.99
273.5981,-6.96
273.6981,-6.58
273.7981,-5.36
273.8981,-4.32
273.9981,-4.04
274.0981,-4.98
274.1981,-4.04
274.2981,-2.91
274.3981,-3.1
274.4981,-2.72
274.5981,-3.85
274.6981,-5.55
274.7981,-7.52
274.8981,-11.48
274.9981,-17.97
275.0981,-25.69
275.1981,-26.16
275.2981,-20.79
275.3981,-15.33
275.4981,-10.25
275.5981,-7.62
275.6981,-6.68
275.7981,-6.77
275.8981,-6.77
275.9981,-5.92
276.0981,-5.73
276.1981,-5.83
276.2981,-6.86
276.3981,-6.39
276.4981,-5.92
276.5981,-7.43
276.6981,-6.86
276.7981,-6.2
276.8981,-5.55
276.9981,-5.45
277.0981,-3.19
277.1981,-1.59
277.2981,-2.06
277.3981,-1.5
277.4981,-1.31
277.5981,-1.59
277.6981,-1.78
277.7981,-3.1
277.8981,-3.66
277.9981,-4.6
278.0981,-5.45
278.1981,-6.49
278.2981,-9.12
278.3981,-13.17
278.4981,-15.15
278.5981,-12.7
278.6981,-9.31
278.7981,-6.77
278.8981,-5.45
278.9981,-5.26
279.0981,-5.55
279.1981,-5.83
279.2981,-6.77
279.3981,-6.3
279.4981,-6.2
279.5981,-5.92
279.6981,-6.77
279.7981,-6.58
279.8981,-6.58
279.9981,-5.83
280.0981,-5.26
280.1981,-3.95
280.2981,-3.01
280.3981,-2.44
280.4981,-2.44
280.5981,-2.91
280.6981,-5.55
280.7981,-6.49
280.8981,-8.46
280.9981,-13.45
281.0981,-16.93
281.1981,-12.79
281.2981,-9.97
281.3981,-9.22
281.4981,-8.84
281.5981,-7.99
281.6981,-7.15
281.7981,-7.43
281.8981,-5.26
281.9981,-3.29
282.0981,-2.44
282.1981,-2.06
282.2981,-2.35
282.3981,-1.69
282.4981,-2.06
282.5981,-2.82
282.6981,-3.76
282.7981,-5.64
282.8981,-7.15
282.9981,-6.77
283.0981,-7.8
283.1981,-7.24
283.2981,-7.62
283.3981,-8.93
283.4981,-9.5
283.5981,-7.9
283.6981,-6.49
283.7981,-4.79
283.8981,-4.7
283.9981,-5.17
284.0981,-5.55
284.1981,-7.05
284.2981,-7.05
284.3981,-6.96
284.4981,-6.49
284.5981,-5.73
284.6981,-6.2
284.7981,-5.45
284.8981,-4.7
284.9981,-2.72
285.0981,-1.88
285.1981,-0.28
285.2981,0.19
285.3981,0.19
285.4981,0.01
285.5981,0.57
285.6981,0.29
285.7981,-1.03
285.8981,-1.22
285.9981,-1.69
286.0981,-2.16
286.1981,-3.19
286.2981,-3.76
286.3981,-6.39
286.4981,-6.86
286.5981,-7.9
286.6981,-9.69
286.7981,-11.85
286.8981,-14.11
286.9981,-18.44
287.0981,-18.25
287.1981,-12.89
287.2981,-9.22
287.3981,-6.11
287.4981,-6.3
287.5981,-6.96
287.6981,-6.96
287.7981,-8.37
287.8981,-6.96
287.9981,-5.83
288.0981,-5.73
288.1981,-4.6
288.2981,-3.66
288.3981,-3.85
288.4981,-2.63
288.5981,-1.31
288.6981,-0.75
288.7981,-0.56
288.8981,-1.59
288.9981,-1.78
289.0981,-2.25
289.1981,-3.95
289.2981,-4.79
289.3981,-5.36
289.4981,-4.6
289.5981,-4.23
289.6981,-5.26
289.7981,-5.45
289.8981,-5.92
289.9981,-5.36
290.0981,-4.6
290.1981,-2.53
290.2981,-1.59
290.3981,-1.22
290.4981,-1.03
290.5981,-0.65
290.6981,-1.88
290.7981,-2.35
290.8981,-2.82
290.9981,-3.85
291.0981,-5.55
291.1981,-6.77
291.2981,-6.58
291.3981,-7.71
291.4981,-6.2
291.5981,-5.64
291.6981,-5.55
291.7981,-4.23
291.8981,-3.85
291.9981,-3.76
292.0981,-4.42
292.1981,-5.08
292.2981,-5.17
292.3981,-6.11
292.4981,-7.62
292.5981,-9.03
292.6981,-9.12
292.7981,-11.0
292.8981,-13.45
292.9981,-16.84
293.0981,-13.83
293.1981,-8.93
293.2981,-5.08
293.3981,-1.31
293.4981,0.1
293.5981,0.38
293.6981,0.85
293.7981,0.85
293.8981,0.29
293.9981,0.38
294.0981,-1.03
294.1981,-1.59
294.2981,-3.66
294.3981,-4.42
294.4981,-4.6
294.5981,-4.7
294.6981,-5.26
294.7981,-5.08
294.8981,-4.6
294.9981,-5.08
295.0981,-5.17
295.1981,-4.51
295.2981,-5.64
295.3981,-5.55
295.4981,-5.73
295.5981,-5.92
295.6981,-6.77
295.7981,-8.46
295.8981,-9.12
295.9981,-8.93
296.0981,-6.68
296.1981,-5.26
296.2981,-3.19
296.3981,-3.19
296.4981,-2.91
296.5981,-1.78
296.6981,-1.78
296.7981,-1.59
296.8981,-0.37
296.9981,-0.84
297.0981,-0.75
297.1981,-0.84
297.2981,-1.88
297.3981,-3.95
297.4981,-3.95
297.5981,-3.48
297.6981,-3.85
297.7981,-4.32
297.8981,-3.57
297.9981,-2.44
298.0981,-2.72
298.1981,-2.72
298.2981,-1.97
298.3981,-0.37
298.4981,-1.03
298.5981,-3.19
298.6981,-3.85
298.7981,-6.86
298.8981,-12.89
298.9981,-17.22
299.8981,-13.08
299.9981,-16.75
300.0981,-13.36
300.1981,-10.06
300.2981,-8.28
300.3981,-6.58
300.4981,-5.83
300.5981,-5.36
300.6981,-3.66
300.7981,-4.42
300.8981,-4.6
300.9981,-3.48
301.0981,-3.19
301.1981,-4.32
301.2981,-4.51
301.3981,-4.42
301.4981,-4.23
301.5981,-4.7
301.6981,-6.86
301.7981,-9.5
301.8981,-9.22
301.9981,-6.77
302.0981,-4.51
302.1981,-2.25
302.2981,-1.78
302.3981,-0.65
302.4981,0.29
302.5981,-0.09
302.6981,-0.93
302.7981,0.48
302.8981,0.85
302.9981,0.29
303.0981,0.01
303.1981,0.29
303.2981,-1.5
303.3981,-1.59
303.4981,-2.53
303.5981,-2.72
303.6981,-3.01
303.7981,-2.91
303.8981,-2.82
303.9981,-1.88
304.0981,-2.53
304.1981,-3.48
304.2981,-2.53
304.3981,-3.19
304.4981,-3.85
304.5981,-4.23
304.6981,-4.6
304.7981,-5.83
304.8981,-6.58
304.9981,-7.8
305.0981,-7.24
305.1981,-7.05
305.2981,-4.89
305.3981,-4.13
305.4981,-3.1
305.5981,-3.76
305.6981,-5.08
305.7981,-7.33
305.8981,-12.51
305.9981,-14.39
306.0981,-9.5
306.1981,-5.73
306.2981,-3.1
306.3981,-2.91
306.4981,-2.06
306.5981,-2.35
306.6981,-3.1
306.7981,-3.57
306.8981,-4.6
306.9981,-3.57
307.0981,-2.91
307.1981,-1.59
307.2981,-1.12
307.3981,-0.84
307.4981,-0.56
307.5981,-0.37
307.6981,-0.46
307.7981,-0.28
307.8981,-2.16
307.9981,-1.41
308.0981,-2.63
308.1981,-3.57
308.2981,-2.35
308.3981,-4.04
308.4981,-5.08
308.5981,-3.57
308.6981,-2.25
308.7981,-1.59
308.8981,-1.59
308.9981,-1.78
309.0981,-1.88
309.1981,-2.53
309.2981,-2.06
309.3981,-4.42
309.4981,-4.7
309.5981,-4.98
309.6981,-6.3
309.7981,-7.43
309.8981,-7.8
309.9981,-7.52
310.0981,-5.92
310.1981,-4.89
310.2981,-2.44
310.3981,-2.35
310.4981,-0.65
310.5981,-0.09
310.6981,0.1
310.7981,0.48
310.8981,0.67
310.9981,0.95
311.0981,0.76
311.1981,0.01
311.2981,-0.46
311.3981,-0.75
311.4981,-1.88
311.5981,-3.1
311.6981,-5.92
311.7981,-9.5
311.8981,-12.79
311.9981,-12.51
312.0981,-8.28
312.1981,-4.32
312.2981,-2.44
312.3981,-1.78
312.4981,-0.84
312.5981,-1.41
312.6981,-1.78
312.7981,-3.01
312.8981,-3.95
312.9981,-6.11
313.0981,-6.96
313.1981,-7.33
313.2981,-6.68
313.3981,-5.83
313.4981,-4.98
313.5981,-3.1
313.6981,-1.78
313.7981,-0.93
313.8981,0.38
313.9981,-1.31
314.0981,-0.28
314.1981,-1.41
314.2981,-1.41
314.3981,-1.41
314.4981,-1.88
314.5981,-2.44
314.6981,-2.06
314.7981,-2.91
314.8981,-3.48
314.9981,-3.66
315.0981,-3.38
315.1981,-3.01
315.2981,-2.82
315.3981,-0.75
315.4981,-0.65
315.5981,-0.84
315.6981,-0.46
315.7981,-0.84
315.8981,-1.22
315.9981,-1.69
316.0981,-2.16
316.1981,-2.72
316.2981,-2.06
316.3981,-3.19
316.4981,-2.63
316.5981,-2.82
316.6981,-2.44
316.7981,-1.59
316.8981,-1.22
316.9981,0.01
317.0981,-0.09
317.1981,0.1
317.2981,-0.09
317.3981,-0.56
317.4981,-2.53
317.5981,-4.13
317.6981,-8.09
317.7981,-13.55
317.8981,-15.9
317.9981,-17.22
318.0981,-13.36
318.1981,-9.12
318.2981,-6.2
318.3981,-4.51
318.4981,-2.82
318.5981,-1.69
318.6981,-1.69
318.7981,-0.93
318.8981,-0.46
318.9981,-0.18
319.0981,-0.09
319.1981,-0.56
319.2981,-0.65
319.3981,-0.84
319.4981,-1.03
319.5981,-0.56
319.6981,-1.41
319.7981,-0.37
319.8981,-0.18
319.9981,-1.31
320.0981,-1.31
320.1981,-1.03
320.2981,-0.93
320.3981,-0.56
320.4981,0.38
320.5981,-0.46
320.6981,-0.84
320.7981,-1.88
320.8981,-3.19
320.9981,-4.51
321.0981,-6.39
321.1981,-6.58
321.2981,-6.68
321.3981,-7.15
321.4981,-6.02
321.5981,-4.98
321.6981,-1.97
321.7981,-1.03
321.8981,-0.75
321.9981,-0.65
322.0981,0.57
322.1981,0.76
322.2981,-0.84
322.3981,-0.18
322.4981,0.01
322.5981,-1.12
322.6981,-1.78
322.7981,-2.44
322.8981,-3.76
322.9981,-2.06
323.0981,-2.16
323.1981,-2.25
323.2981,-2.44
323.3981,-3.19
323.4981,-3.29
323.5981,-4.32
323.6981,-7.52
323.7981,-11.29
323.8981,-13.73
323.9981,-9.97
324.0981,-6.3
324.1981,-3.95
324.2981,-3.1
324.3981,-3.1
324.4981,-3.57
324.5981,-2.82
324.6981,-2.35
324.7981,-1.78
324.8981,-1.5
324.9981,-1.22
325.0981,-0.75
325.1981,-0.65
325.2981,0.1
325.3981,0.85
325.4981,0.67
325.5981,-0.18
325.6981,-0.37
325.7981,-0.84
325.8981,-3.1
325.9981,-5.83
326.0981,-6.58
326.1981,-6.3
326.2981,-5.73
326.3981,-4.7
326.4981,-4.04
326.5981,-3.38
326.6981,-2.91
326.7981,-2.16
326.8981,-2.25
326.9981,-1.41
327.0981,-1.69
327.1981,-0.84
327.2981,-0.56
327.3981,0.38
327.4981,-1.31
327.5981,-1.59
327.6981,-1.5
327.7981,-2.35
327.8981,-1.03
327.9981,-0.46
328.0981,0.01
328.1981,-0.09
328.2981,0.95
328.3981,1.14
328.4981,0.57
328.5981,0.29
328.6981,0.1
328.7981,-0.65
328.8981,-0.28
328.9981,-1.69
329.0981,-4.23
329.1981,-4.23
329.2981,-6.68
329.3981,-7.52
329.4981,-7.99
329.5981,-9.03
329.6981,-11.19
329.7981,-15.15
329.8981,-13.92
329.9981,-8.18
330.0981,-4.7
330.1981,-2.25
330.2981,-1.22
330.3981,-0.93
330.4981,-0.56
330.5981,-1.59
330.6981,-1.03
330.7981,-1.69
330.8981,-2.25
330.9981,-2.72
331.0981,-1.59
331.1981,-1.5
331.2981,-2.16
331.3981,-0.09
331.4981,-0.09
331.5981,-0.37
331.6981,-0.28
331.7981,-0.65
331.8981,-1.88
331.9981,-1.5
332.0981,-1.22
332.1981,-2.25
332.2981,-3.01
332.3981,-4.23
332.4981,-4.13
332.5981,-4.79
332.6981,-3.95
332.7981,-1.97
332.8981,-0.65
332.9981,0.1
333.0981,0.19
333.1981,-0.18
333.2981,-0.56
333.3981,-0.46
333.4981,-0.09
333.5981,0.38
333.6981,0.1
333.7981,-1.22
333.8981,-1.12
333.9981,-1.69
334.0981,-3.01
334.1981,-3.01
334.2981,-4.79
334.3981,-4.89
334.4981,-5.17
334.5981,-4.6
334.6981,-3.48
334.7981,-2.16
334.8981,-0.84
334.9981,-0.93
335.0981,-0.46
335.1981,-0.18
335.2981,-1.5
335.3981,-2.91
335.4981,-4.6
335.5981,-7.43
335.6981,-11.1
335.7981,-15.05
335.8981,-12.13
335.9981,-7.52
336.0981,-4.6
336.1981,-2.91
336.2981,-0.93
336.3981,0.76
336.4981,1.51
336.5981,1.23
336.6981,0.19
336.7981,-0.18
336.8981,-0.75
336.9981,-0.93
337.0981,-1.03
337.1981,-2.63
337.2981,-4.23
337.3981,-5.64
337.4981,-7.62
337.5981,-6.86
337.6981,-6.39
337.7981,-4.04
337.8981,-1.59
337.9981,-1.31
338.0981,-1.69
338.1981,-1.41
338.2981,-0.18
338.3981,-0.56
338.4981,-0.84
338.5981,-0.84
338.6981,-0.46
338.7981,-0.37
338.8981,-1.12
338.9981,-2.06
339.0981,-2.63
339.1981,-2.72
339.2981,-2.06
339.3981,-1.12
339.4981,-1.03
339.5981,-1.22
339.6981,-0.09
339.7981,-0.18
339.8981,-0.28
339.9981,-0.93
340.0981,-0.46
340.1981,-1.69
340.2981,-2.72
340.3981,-3.29
340.4981,-4.98
340.5981,-4.98
340.6981,-4.98
340.7981,-3.1
340.8981,-3.19
340.9981,-2.53
341.0981,-1.78
341.1981,-0.75
341.2981,-0.09
341.3981,0.19
341.4981,-3.19
341.5981,-6.11
341.6981,-11.0
341.7981,-13.92
341.8981,-10.72
341.9981,-7.24
342.0981,-5.17
342.1981,-4.7
342.2981,-3.29
342.3981,-2.35
342.4981,-3.85
342.5981,-2.35
342.6981,-1.88
342.7981,-1.03
342.8981,-1.12
342.9981,-0.84
343.0981,-0.84
343.1981,-1.12
343.2981,-1.22
343.3981,-1.69
343.4981,-1.5
343.5981,-2.82
343.6981,-3.66
343.7981,-2.53
343.8981,-2.82
343.9981,-3.19
344.0981,-1.59
344.1981,-1.22
344.2981,-0.56
344.3981,-0.28
344.4981,1.23
344.5981,0.85
344.6981,1.51
344.7981,1.04
344.8981,0.85
344.9981,-0.84
345.0981,-2.63
345.1981,-3.01
345.2981,-4.51
345.3981,-4.23
345.4981,-3.95
345.5981,-5.08
345.6981,-5.36
345.7981,-5.26
345.8981,-4.51
345.9981,-3.76
346.0981,-2.53
346.1981,-1.88
346.2981,-1.41
346.3981,-0.75
346.4981,-1.41
346.5981,-0.46
346.6981,-0.18
346.7981,-0.37
346.8981,0.01
346.9981,-0.84
347.0981,-0.93
347.1981,-1.97
347.2981,-1.69
347.3981,-2.35
347.4981,-5.17
347.5981,-7.8
347.6981,-12.23
347.7981,-11.66
347.8981,-6.68
347.9981,-4.04
348.0981,-2.82
348.1981,-0.84
348.2981,-1.12
348.3981,-2.16
348.4981,-3.57
348.5981,-4.7
348.6981,-5.64
348.7981,-6.11
348.8981,-6.11
348.9981,-5.26
349.0981,-3.95
349.1981,-2.91
349.2981,-2.44
349.3981,-1.88
349.4981,-0.84
349.5981,-0.37
349.6981,0.38
349.7981,-0.37
349.8981,-0.56
349.9981,-0.46
350.0981,-1.59
350.1981,-2.16
350.2981,-2.63
350.3981,-2.53
350.4981,-3.48
350.5981,-2.63
350.6981,-2.53
350.7981,-2.25
350.8981,-2.16
350.9981,-0.56
351.0981,-1.31
351.1981,-0.56
351.2981,-0.65
351.3981,-1.31
351.4981,-1.97
351.5981,-2.82
351.6981,-3.95
351.7981,-3.57
351.8981,-3.66
351.9981,-2.91
352.0981,-2.91
352.1981,-1.88
352.2981,-1.03
352.3981,-1.41
352.4981,-1.5
352.5981,-0.56
352.6981,-0.93
352.7981,-0.37
352.8981,0.29
352.9981,0.48
353.0981,-0.37
353.1981,-0.93
353.2981,-2.35
353.3981,-6.58
353.4981,-11.19
353.5981,-15.71
353.6981,-20.04
353.7981,-15.9
353.8981,-9.88
353.9981,-5.83
354.0981,-4.42
354.1981,-2.91
354.2981,-2.16
354.3981,-1.59
354.4981,-1.59
354.5981,-1.5
354.6981,-1.78
354.7981,-1.41
354.8981,-2.53
354.9981,-2.82
355.0981,-2.63
355.1981,-2.25
355.2981,-1.12
355.3981,-0.46
355.4981,-0.84
355.5981,-0.37
355.6981,0.48
355.7981,0.48
355.8981,1.51
355.9981,0.1
356.0981,0.1
356.1981,-0.37
356.2981,-0.84
356.3981,-1.12
356.4981,-2.53
356.5981,-4.7
356.6981,-5.45
356.7981,-7.15
356.8981,-7.52
356.9981,-6.68
357.0981,-5.64
357.1981,-3.95
357.2981,-2.91
357.3981,-2.82
357.4981,-1.41
357.5981,-1.69
357.6981,-2.44
357.7981,-2.25
357.8981,-1.88
357.9981,-1.31
358.0981,-1.5
358.1981,-1.78
358.2981,-2.16
358.3981,-2.25
358.4981,-2.63
358.5981,-1.69
358.6981,-1.69
358.7981,-1.88
358.8981,-0.93
358.9981,-0.65
359.0981,-0.28
359.1981,-0.93
359.2981,-1.78
359.3981,-4.23
359.4981,-7.15
359.5981,-12.42
359.6981,-15.8
359.7981,-11.95
359.8981,-9.31
359.9981,-7.8
360.0981,-5.73
360.1981,-4.42
360.2981,-3.48
360.3981,-1.22
360.4981,-1.31
360.5981,-0.93
360.6981,-0.18
360.7981,0.29
360.8981,-0.18
360.9981,-1.22
361.0981,-1.03
361.1981,-2.06
361.2981,-1.12
361.3981,-2.72
361.4981,-3.57
361.5981,-3.57
361.6981,-5.08
361.7981,-5.08
361.8981,-6.02
361.9981,-6.02
362.0981,-5.45
362.1981,-4.6
362.2981,-4.42
362.3981,-3.48
362.4981,-1.69
362.5981,-1.88
362.6981,-1.5
362.7981,-1.69
362.8981,-2.06
362.9981,-1.88
363.0981,-2.06
363.1981,-3.19
363.2981,-2.82
363.3981,-2.35
363.4981,-0.46
363.5981,-0.46
363.6981,0.95
363.7981,0.38
363.8981,0.95
363.9981,1.32
364.0981,1.32
364.1981,1.04
364.2981,1.14
364.3981,0.67
364.4981,-0.46
364.5981,-1.12
364.6981,-2.25
364.7981,-4.13
364.8981,-5.17
364.9981,-6.77
365.0981,-7.9
365.1981,-9.22
365.2981,-9.03
365.3981,-8.84
365.4981,-10.44
365.5981,-16.18
365.6981,-19.95
365.7981,-21.45
365.8981,-22.86
365.9981,-24.28
366.0981,-24.93
366.1981,-25.03
366.2981,-25.59
366.3981,-27.0
366.4981,-27.19
366.5981,-27.29
366.6981,-26.82
366.7981,-25.78
366.8981,-24.84
366.9981,-23.9
367.0981,-23.33
367.1981,-23.43
367.2981,-27.29
367.3981,-28.04
367.4981,-28.89
367.5981,-30.3
367.6981,-31.24
367.7981,-32.09
367.8981,-32.65
367.9981,-33.4
368.0981,-33.59
368.1981,-33.69
368.2981,-32.93
368.3981,-32.28
368.4981,-31.52
368.5981,-31.05
368.6981,-30.68
368.7981,-30.3
368.8981,-30.11
368.9981,-29.92
369.0981,-29.92
369.1981,-30.2
369.2981,-30.77
369.3981,-31.71
369.4981,-32.93
369.5981,-34.25
369.6981,-34.91
369.7981,-35.1
369.8981,-34.82
369.9981,-34.25
370.0981,-33.78
370.1981,-33.03
370.2981,-32.56
370.3981,-32.09
370.4981,-31.8
370.5981,-32.09
370.6981,-32.65
370.7981,-33.31
370.8981,-33.69
370.9981,-33.4
371.0981,-32.28
371.1981,-31.33
371.2981,-30.58
371.3981,-30.39
371.4981,-30.39
371.5981,-30.3
371.6981,-30.3
371.7981,-29.55
371.8981,-28.79
371.9981,-27.85
372.0981,-27.29
372.1981,-27.1
372.2981,-27.19
372.3981,-27.76
372.4981,-28.32
372.5981,-29.17
372.6981,-29.92
372.7981,-30.86
372.8981,-31.71
372.9981,-32.75
373.0981,-33.78
373.1981,-34.72
373.2981,-34.82
373.3981,-34.53
373.4981,-34.35
373.5981,-33.88
373.6981,-33.69
373.7981,-33.4
373.8981,-33.5
373.9981,-33.4
374.0981,-33.5
374.1981,-33.5
374.2981,-33.69
374.3981,-33.59
374.4981,-33.59
374.5981,-33.12
374.6981,-32.37
374.7981,-31.71
374.8981,-31.15
374.9981,-30.58
375.0981,-30.02
375.1981,-29.64
375.2981,-29.17
375.3981,-28.79
375.4981,-28.6
375.5981,-28.89
375.6981,-29.36
375.7981,-30.2
375.8981,-31.15
375.9981,-32.18
376.0981,-32.93
376.1981,-33.22
376.2981,-33.22
376.3981,-33.12
376.4981,-32.65
376.5981,-32.18
376.6981,-31.71
376.7981,-31.05
376.8981,-30.39
376.9981,-29.92
377.0981,-29.73
377.1981,-29.92
377.2981,-30.3
377.3981,-30.96
377.4981,-31.99
377.5981,-33.03
377.6981,-33.97
377.7981,-34.53
377.8981,-34.44
377.9981,-34.35
378.0981,-34.06
378.1981,-33.59
378.2981,-33.12
378.3981,-32.46
378.4981,-31.9
378.5981,-31.52
378.6981,-31.43
378.7981,-31.62
378.8981,-32.46
378.9981,-33.78
379.0981,-35.19
379.1981,-36.04
379.2981,-35.48
379.3981,-33.5
379.4981,-31.71
379.5981,-30.39
379.6981,-29.26
379.7981,-28.6
379.8981,-28.04
379.9981,-27.85
380.0981,-27.76
380.1981,-27.76
380.2981,-27.85
380.3981,-28.23
380.4981,-28.79
380.5981,-29.36
380.6981,-30.11
380.7981,-30.77
380.8981,-31.43
380.9981,-32.09
381.0981,-32.65
381.1981,-33.12
381.2981,-33.59
381.3981,-33.5
381.4981,-33.31
381.5981,-33.12
381.6981,-32.93
381.7981,-32.93
381.8981,-33.31
381.9981,-33.69
382.0981,-34.16
382.1981,-34.82
382.2981,-35.66
382.3981,-36.6
382.4981,-36.7
382.5981,-35.48
382.6981,-33.59
382.7981,-31.9
382.8981,-30.39
382.9981,-29.36
383.0981,-28.98
383.1981,-28.89
383.2981,-28.89
383.3981,-28.98
383.4981,-29.08
383.5981,-29.17
383.6981,-29.26
383.7981,-29.55
383.8981,-30.11
383.9981,-30.86
384.0981,-31.9
384.1981,-32.37
384.2981,-32.46
384.3981,-31.9
384.4981,-31.33
384.5981,-31.05
384.6981,-30.86
384.7981,-31.05
384.8981,-30.96
384.9981,-30.86
385.0981,-30.49
385.1981,-30.2
385.2981,-30.2
385.3981,-30.49
385.4981,-31.05
385.5981,-31.71
385.6981,-32.56
385.7981,-33.03
385.8981,-33.31
385.9981,-33.59
386.0981,-33.4
386.1981,-33.03
386.2981,-32.75
386.3981,-32.56
386.4981,-32.28
386.5981,-32.46
386.6981,-32.84
386.7981,-33.59
386.8981,-34.25
386.9981,-34.82
387.0981,-34.91
387.1981,-34.91
387.2981,-34.72
387.3981,-34.91
387.4981,-34.82
387.5981,-34.44
387.6981,-33.31
387.7981,-31.9
387.8981,-30.49
387.9981,-29.45
388.0981,-28.79
388.1981,-28.32
388.2981,-28.13
388.3981,-28.13
388.4981,-28.23
388.5981,-28.23
388.6981,-28.51
388.7981,-29.08
388.8981,-29.92
388.9981,-31.05
389.0981,-31.99
389.1981,-32.46
389.2981,-32.28
389.3981,-31.62
389.4981,-31.24
389.5981,-31.05
389.6981,-31.24
389.7981,-31.71
389.8981,-32.46
389.9981,-33.22
390.0981,-33.5
390.1981,-33.88
390.2981,-34.35
390.3981,-35.1
390.4981,-36.13
390.5981,-37.26
390.6981,-37.73
390.7981,-36.51
390.8981,-34.82
390.9981,-33.03
391.0981,-31.52
391.1981,-30.2
391.2981,-29.36
391.3981,-28.79
391.4981,-28.6
391.5981,-28.79
391.6981,-29.17
391.7981,-29.92
391.8981,-30.86
391.9981,-31.9
392.0981,-32.65
392.1981,-33.31
392.2981,-33.69
392.3981,-33.59
392.4981,-33.22
392.5981,-32.56
392.6981,-31.71
392.7981,-30.96
392.8981,-30.49
392.9981,-30.3
393.0981,-30.3
393.1981,-30.77
393.2981,-31.24
393.3981,-31.8
393.4981,-32.46
393.5981,-32.93
393.6981,-33.4
393.7981,-33.78
393.8981,-34.16
393.9981,-34.25
394.0981,-34.16
394.1981,-33.4
394.2981,-32.65
394.3981,-31.9
394.4981,-31.33
394.5981,-31.15
394.6981,-31.43
394.7981,-31.8
394.8981,-32.65
394.9981,-33.78
395.0981,-35.1
395.1981,-36.23
395.2981,-37.08
395.3981,-37.26
395.4981,-36.6
395.5981,-35.66
395.6981,-34.44
395.7981,-33.03
395.8981,-31.71
395.9981,-30.68
396.0981,-29.92
396.1981,-29.36
396.2981,-29.17
396.3981,-29.26
396.4981,-29.45
396.5981,-29.73
396.6981,-29.83
396.7981,-29.92
396.8981,-29.92
396.9981,-30.02
397.0981,-30.11
397.1981,-30.49
397.2981,-30.86
397.3981,-31.15
397.4981,-31.43
397.5981,-31.43
397.6981,-31.24
397.7981,-31.24
397.8981,-31.43
397.9981,-31.71
398.0981,-32.56
398.1981,-33.4
398.2981,-34.63
398.3981,-36.04
398.4981,-37.17
398.5981,-38.11
398.6981,-38.02
398.7981,-37.08
398.8981,-35.76
398.9981,-34.63
399.0981,-33.88
399.1981,-33.4
399.2981,-32.84
399.3981,-32.09
399.4981,-31.52
399.5981,-31.05
399.6981,-30.77
399.7981,-30.49
399.8981,-30.68
399.9981,-31.05
400.0981,-31.33
400.1981,-31.62
400.2981,-31.62
400.3981,-31.9
400.4981,-32.18
400.5981,-32.56
400.6981,-33.03
400.7981,-32.93
400.8981,-32.37
400.9981,-31.52
401.0981,-30.68
401.1981,-30.2
401.2981,-30.11
401.3981,-30.39
401.4981,-31.05
401.5981,-31.9
401.6981,-32.46
401.7981,-32.93
401.8981,-33.12
401.9981,-33.12
402.0981,-33.22
402.1981,-32.93
402.2981,-32.65
402.3981,-32.18
402.4981,-31.43
402.5981,-30.86
402.6981,-30.49
402.7981,-30.49
402.8981,-30.86
402.9981,-31.52
403.0981,-32.37
403.1981,-33.5
403.2981,-34.82
403.3981,-36.23
403.4981,-37.64
403.5981,-38.77
403.6981,-38.39
403.7981,-37.08
403.8981,-35.38
403.9981,-33.97
404.0981,-32.93
404.1981,-32.09
404.2981,-31.33
404.3981,-30.96
404.4981,-30.58
404.5981,-30.39
404.6981,-30.3
404.7981,-30.86
404.8981,-31.43
404.9981,-32.37
405.0981,-33.03
405.1981,-32.75
405.2981,-32.18
405.3981,-31.33
405.4981,-30.58
405.5981,-30.3
405.6981,-30.2
405.7981,-30.39
405.8981,-30.49
405.9981,-30.77
406.0981,-30.86
406.1981,-31.24
406.2981,-31.99
406.3981,-33.12
406.4981,-34.82
406.5981,-37.08
406.6981,-39.62
406.7981,-39.99
406.8981,-38.77
406.9981,-37.17
407.0981,-35.48
407.1981,-34.16
407.2981,-32.93
407.3981,-31.9
407.4981,-31.05
407.5981,-30.68
407.6981,-30.49
407.7981,-30.86
407.8981,-31.43
407.9981,-32.18
408.0981,-33.03
408.1981,-33.5
408.2981,-33.69
408.3981,-33.22
408.4981,-32.56
408.5981,-32.18
408.6981,-31.62
408.7981,-31.43
408.8981,-31.43
408.9981,-31.52
409.0981,-31.9
409.1981,-32.09
409.2981,-32.37
409.3981,-32.37
409.4981,-32.37
409.5981,-32.37
409.6981,-32.65
409.7981,-33.03
409.8981,-33.78
409.9981,-34.35
410.0981,-34.53
410.1981,-34.16
410.2981,-33.31
410.3981,-32.56
410.4981,-31.99
410.5981,-31.62
410.6981,-31.43
410.7981,-31.52
410.8981,-31.8
410.9981,-31.99
411.0981,-32.37
411.1981,-32.84
411.2981,-33.4
411.3981,-34.53
411.4981,-35.48
411.5981,-36.6
411.6981,-37.64
411.7981,-37.64
411.8981,-37.55
411.9981,-36.79
412.0981,-35.66
412.1981,-35.19
412.2981,-34.53
412.3981,-34.16
412.4981,-33.59
412.5981,-32.84
412.6981,-32.37
412.7981,-31.99
412.8981,-31.9
412.9981,-31.9
413.0981,-32.09
413.1981,-32.18
413.2981,-32.28
413.3981,-31.99
413.4981,-31.52
413.5981,-31.24
413.6981,-30.68
413.7981,-30.58
413.8981,-30.58
413.9981,-30.49
414.0981,-30.49
414.1981,-30.49
414.2981,-30.68
414.3981,-30.96
414.4981,-31.43
414.5981,-32.37
414.6981,-33.88
414.7981,-35.85
414.8981,-37.92
414.9981,-39.33
415.0981,-39.05
415.1981,-37.45
415.2981,-35.76
415.3981,-34.63
415.4981,-33.78
415.5981,-33.03
415.6981,-32.56
415.7981,-32.28
415.8981,-32.18
415.9981,-32.28
416.0981,-32.56
416.1981,-32.93
416.2981,-33.31
416.3981,-33.97
416.4981,-34.82
416.5981,-35.48
416.6981,-35.85
416.7981,-35.48
416.8981,-34.44
416.9981,-33.22
417.0981,-32.37
417.1981,-31.8
417.2981,-31.8
417.3981,-32.09
417.4981,-32.84
417.5981,-33.88
417.6981,-34.53
417.7981,-35.19
417.8981,-35.76
417.9981,-36.23
418.0981,-36.79
418.1981,-36.79
418.2981,-36.13
418.3981,-34.53
418.4981,-33.12
418.5981,-31.8
418.6981,-31.15
418.7981,-30.77
418.8981,-30.68
418.9981,-30.86
419.0981,-30.86
419.1981,-31.24
419.2981,-31.71
419.3981,-32.37
419.4981,-33.22
419.5981,-34.82
419.6981,-36.79
419.7981,-38.58
419.8981,-39.33
419.9981,-38.2
420.0981,-36.7
420.1981,-35.38
420.2981,-34.72
420.3981,-34.25
420.4981,-34.06
420.5981,-33.97
420.6981,-34.25
420.7981,-34.72
420.8981,-35.19
420.9981,-35.76
421.0981,-35.95
421.1981,-35.66
421.2981,-35.0
421.3981,-34.16
421.4981,-33.5
421.5981,-32.84
421.6981,-32.09
421.7981,-31.62
421.8981,-31.24
421.9981,-30.86
422.0981,-30.58
422.1981,-31.05
422.2981,-31.52
422.3981,-32.37
422.4981,-33.59
422.5981,-34.25
422.6981,-34.82
422.7981,-34.35
422.8981,-33.5
422.9981,-33.5
423.0981,-33.5
423.1981,-32.65
423.2981,-33.12
423.3981,-32.56
423.4981,-31.52
423.5981,-30.58
423.6981,-29.83
423.7981,-29.73
423.8981,-29.83
423.9981,-30.2
424.0981,-30.49
424.1981,-30.39
424.2981,-29.92
424.3981,-29.08
424.4981,-27.57
424.5981,-27.38
424.6981,-27.19
424.7981,-26.25
424.8981,-25.59
424.9981,-25.03
425.0981,-23.99
425.1981,-22.77
425.2981,-21.26
425.3981,-17.4
425.4981,-11.38
425.5981,-7.71
425.6981,-6.39
425.7981,-5.83
425.8981,-6.02
425.9981,-6.39
426.0981,-7.15
426.1981,-6.77
426.2981,-7.15
426.3981,-5.92
426.4981,-5.36
426.5981,-4.89
426.6981,-3.1
426.7981,-2.06
426.8981,-0.84
426.9981,0.01
427.0981,-1.69
427.1981,-2.16
427.2981,-1.88
427.3981,-2.72
427.4981,-3.57
427.5981,-3.19
427.6981,-4.32
427.7981,-4.79
427.8981,-5.17
427.9981,-6.49
428.0981,-7.71
428.1981,-7.71
428.2981,-7.8
428.3981,-6.86
428.4981,-4.89
428.5981,-5.83
428.6981,-6.11
428.7981,-4.23
428.8981,-6.11
428.9981,-6.11
429.0981,-8.93
429.1981,-10.82
429.2981,-11.57
429.3981,-10.06
429.4981,-8.18
429.5981,-6.96
429.6981,-5.17
429.7981,-4.13
429.8981,-3.1
429.9981,-2.72
430.0981,-1.5
430.1981,-0.84
430.2981,-0.18
430.3981,-1.22
430.4981,-1.22
430.5981,-2.53
430.6981,-3.76
430.7981,-5.45
430.8981,-8.75
430.9981,-11.1
431.0981,-14.86
431.1981,-18.16
431.2981,-21.64
431.3981,-17.12
431.4981,-11.29
431.5981,-7.71
431.6981,-4.89
431.7981,-2.82
431.8981,-3.38
431.9981,-3.19
432.0981,-4.32
432.1981,-5.17
432.2981,-6.49
432.3981,-7.15
432.4981,-6.96
432.5981,-6.58
432.6981,-6.58
432.7981,-5.36
432.8981,-3.66
432.9981,-4.13
433.0981,-2.25
433.1981,-2.25
433.2981,-3.01
433.3981,-2.25
433.4981,-2.91
433.5981,-3.57
433.6981,-3.66
433.7981,-4.79
433.8981,-7.52
433.9981,-9.12
434.0981,-11.38
434.1981,-13.55
434.2981,-11.1
434.3981,-9.22
434.4981,-6.11
434.5981,-4.79
434.6981,-4.98
434.7981,-4.7
434.8981,-4.51
434.9981,-4.7
435.0981,-4.42
435.1981,-3.48
435.2981,-3.01
435.3981,-4.13
435.4981,-4.23
435.5981,-4.7
435.6981,-5.83
435.7981,-5.83
435.8981,-6.68
435.9981,-5.64
436.0981,-4.79
436.1981,-4.42
436.2981,-4.6
436.3981,-4.89
436.4981,-5.55
436.5981,-5.73
436.6981,-6.58
436.7981,-7.43
436.8981,-8.65
436.9981,-11.95
437.0981,-15.15
437.1981,-21.26
437.2981,-23.62
437.3981,-18.44
437.4981,-13.73
437.5981,-10.16
437.6981,-8.18
437.7981,-6.49
437.8981,-4.51
437.9981,-4.23
438.0981,-3.85
438.1981,-2.82
438.2981,-3.01
438.3981,-2.35
438.4981,-2.25
438.5981,-3.1
438.6981,-4.04
438.7981,-4.7
438.8981,-4.51
438.9981,-4.79
439.0981,-6.02
439.1981,-8.18
439.2981,-9.4
439.3981,-8.56
439.4981,-7.99
439.5981,-7.43
439.6981,-7.24
439.7981,-6.58
439.8981,-6.02
439.9981,-6.39
440.0981,-5.26
440.1981,-3.95
440.2981,-4.04
440.3981,-5.64
440.4981,-5.73
440.5981,-6.86
440.6981,-9.31
440.7981,-9.12
440.8981,-7.33
440.9981,-5.36
441.0981,-4.32
441.1981,-4.04
441.2981,-3.85
441.3981,-4.32
441.4981,-4.04
441.5981,-3.48
441.6981,-3.57
441.7981,-3.48
441.8981,-3.76
441.9981,-4.7
442.0981,-6.2
442.1981,-9.88
442.2981,-13.08
442.3981,-16.56
442.4981,-14.2
442.5981,-11.1
442.6981,-7.99
442.7981,-6.86
442.8981,-6.77
442.9981,-8.46
443.0981,-10.53
443.1981,-15.33
443.2981,-14.96
443.3981,-10.25
443.4981,-7.15
443.5981,-5.08
443.6981,-6.02
443.7981,-4.04
443.8981,-5.26
443.9981,-6.11
444.0981,-5.36
444.1981,-5.08
444.2981,-3.38
444.3981,-3.19
444.4981,-1.88
444.5981,-1.97
444.6981,-2.16
444.7981,-3.01
444.8981,-3.1
444.9981,-4.42
445.0981,-4.42
445.1981,-6.77
445.2981,-7.52
445.3981,-10.06
445.4981,-12.42
445.5981,-12.98
445.6981,-10.63
445.7981,-8.84
445.8981,-6.49
445.9981,-4.98
446.0981,-3.76
446.1981,-3.38
446.2981,-4.04
446.3981,-3.38
446.4981,-4.04
446.5981,-5.45
446.6981,-6.11
446.7981,-6.11
446.8981,-5.55
446.9981,-6.3
447.0981,-6.02
447.1981,-6.49
447.2981,-7.43
447.3981,-6.77
447.4981,-6.86
447.5981,-5.17
447.6981,-3.85
447.7981,-4.13
447.8981,-4.98
447.9981,-4.51
448.0981,-5.55
448.1981,-7.05
448.2981,-7.52
448.3981,-6.96
448.4981,-6.39
448.5981,-6.2
448.6981,-5.73
448.7981,-6.49
448.8981,-6.39
448.9981,-9.03
449.0981,-12.6
449.1981,-15.8
449.2981,-13.36
449.3981,-8.75
449.4981,-6.49
449.5981,-4.6
449.6981,-3.85
449.7981,-2.91
449.8981,-3.85
449.9981,-4.79
450.0981,-5.92
450.1981,-7.15
450.2981,-9.12
450.3981,-10.44
450.4981,-10.25
450.5981,-9.4
450.6981,-8.28
450.7981,-8.56
450.8981,-8.18
450.9981,-7.15
451.0981,-6.68
451.1981,-5.64
451.2981,-5.83
451.3981,-5.17
451.4981,-5.73
451.5981,-5.45
451.6981,-5.26
451.7981,-4.13
451.8981,-3.01
451.9981,-3.85
452.0981,-4.32
452.1981,-4.13
452.2981,-4.79
452.3981,-5.26
452.4981,-4.23
452.5981,-3.1
452.6981,-2.82
452.7981,-2.16
452.8981,-2.44
452.9981,-2.72
453.0981,-3.57
453.1981,-4.89
453.2981,-5.64
453.3981,-6.3
453.4981,-7.15
453.5981,-7.05
453.6981,-9.22
453.7981,-11.48
453.8981,-12.13
453.9981,-10.44
454.0981,-7.99
454.1981,-6.2
454.2981,-4.79
454.3981,-4.04
454.4981,-3.01
454.5981,-3.57
454.6981,-4.42
454.7981,-6.68
454.8981,-9.12
454.9981,-12.6
455.0981,-18.35
455.1981,-22.68
455.2981,-19.0
455.3981,-13.92
455.4981,-9.5
455.5981,-7.15
455.6981,-4.51
455.7981,-3.95
455.8981,-3.01
455.9981,-2.91
456.0981,-2.53
456.1981,-2.25
456.2981,-3.01
456.3981,-3.95
456.4981,-4.51
456.5981,-6.02
456.6981,-7.9
456.7981,-7.05
456.8981,-6.58
456.9981,-5.55
457.0981,-3.66
457.1981,-2.91
457.2981,-1.59
457.3981,-1.41
457.4981,-1.22
457.5981,0.1
457.6981,-0.28
457.7981,-0.46
457.8981,-1.78
457.9981,-1.59
458.0981,-3.57
458.1981,-4.7
458.2981,-6.68
458.3981,-8.09
458.4981,-9.22
458.5981,-9.12
458.6981,-9.4
458.7981,-10.53
458.8981,-10.63
458.9981,-9.4
459.0981,-8.09
459.1981,-6.39
459.2981,-6.49
459.3981,-6.39
459.4981,-7.99
459.5981,-9.12
459.6981,-10.63
459.7981,-10.72
459.8981,-10.44
459.9981,-7.15
460.0981,-4.89
460.1981,-4.13
460.2981,-2.35
460.3981,-2.53
460.4981,-1.78
460.5981,-2.91
460.6981,-2.82
460.7981,-3.1
460.8981,-6.2
460.9981,-8.56
461.0981,-14.2
461.1981,-14.68
461.2981,-10.72
461.3981,-8.84
461.4981,-6.86
461.5981,-7.43
461.6981,-5.92
461.7981,-6.49
461.8981,-6.11
461.9981,-4.7
462.0981,-4.42
462.1981,-4.42
462.2981,-4.13
462.3981,-4.13
462.4981,-4.42
462.5981,-4.23
462.6981,-5.08
462.7981,-5.83
462.8981,-5.83
462.9981,-6.2
463.0981,-6.58
463.1981,-8.18
463.2981,-8.37
463.3981,-7.9
463.4981,-8.28
463.5981,-7.71
463.6981,-5.92
463.7981,-5.64
463.8981,-5.73
463.9981,-5.83
464.0981,-5.45
464.1981,-5.83
464.2981,-5.55
464.3981,-5.36
464.4981,-5.83
464.5981,-6.49
464.6981,-7.15
464.7981,-7.52
464.8981,-7.9
464.9981,-7.24
465.0981,-4.6
465.1981,-4.7
465.2981,-4.32
465.3981,-3.95
465.4981,-2.91
465.5981,-3.1
465.6981,-2.25
465.7981,-1.31
465.8981,-0.09
465.9981,0.67
466.0981,-0.84
466.1981,-1.5
466.2981,-2.35
466.3981,-3.76
466.4981,-5.64
466.5981,-6.86
466.6981,-9.12
466.7981,-11.38
466.8981,-13.55
466.9981,-17.59
467.0981,-22.02
467.1981,-19.66
467.2981,-15.15
467.3981,-11.29
467.4981,-9.12
467.5981,-8.84
467.6981,-8.09
467.7981,-8.09
467.8981,-8.09
467.9981,-8.75
468.0981,-9.97
468.1981,-10.06
468.2981,-9.78
468.3981,-7.52
468.4981,-4.7
468.5981,-3.1
468.6981,-3.01
468.7981,-1.41
468.8981,-0.18
468.9981,-0.46
469.0981,-0.46
469.1981,-1.22
469.2981,-1.41
469.3981,-2.06
469.4981,-3.19
469.5981,-3.19
469.6981,-4.13
469.7981,-6.02
469.8981,-6.3
469.9981,-6.2
470.0981,-4.98
470.1981,-3.38
470.2981,-2.82
470.3981,-3.19
470.4981,-3.85
470.5981,-4.04
470.6981,-4.6
470.7981,-4.98
470.8981,-5.92
470.9981,-5.08
471.0981,-6.77
471.1981,-8.65
471.2981,-10.53
471.3981,-13.73
471.4981,-12.7
471.5981,-10.25
471.6981,-8.18
471.7981,-6.77
471.8981,-6.3
471.9981,-5.45
472.0981,-6.2
472.1981,-5.92
472.2981,-5.92
472.3981,-6.77
472.4981,-8.65
472.5981,-9.88
472.6981,-11.95
472.7981,-14.02
472.8981,-16.28
472.9981,-19.29
473.0981,-19.76
473.1981,-14.86
473.2981,-9.97
473.3981,-6.11
473.4981,-3.01
473.5981,-2.16
473.6981,-1.41
473.7981,-1.5
473.8981,-1.03
473.9981,-1.5
474.0981,-2.25
474.1981,-2.44
474.2981,-2.91
474.3981,-2.44
474.4981,-2.16
474.5981,-1.97
474.6981,-2.91
474.7981,-3.48
474.8981,-3.85
474.9981,-4.04
475.0981,-3.76
475.1981,-4.04
475.2981,-4.04
475.3981,-5.26
475.4981,-4.51
475.5981,-6.02
475.6981,-6.68
475.7981,-9.22
475.8981,-10.25
475.9981,-12.98
476.0981,-15.43
476.1981,-15.15
476.2981,-14.2
476.3981,-11.66
476.4981,-10.35
476.5981,-8.37
476.6981,-6.68
476.7981,-6.3
476.8981,-6.02
476.9981,-4.89
477.0981,-3.76
477.1981,-4.32
477.2981,-3.48
477.3981,-3.48
477.4981,-2.91
477.5981,-3.48
477.6981,-3.1
477.7981,-3.57
477.8981,-3.85
477.9981,-5.64
478.0981,-6.11
478.1981,-5.73
478.2981,-4.98
478.3981,-3.95
478.4981,-3.38
478.5981,-4.51
478.6981,-4.89
478.7981,-7.52
478.8981,-10.35
478.9981,-16.37
479.0981,-17.78
479.1981,-13.45
479.2981,-11.48
479.3981,-9.03
479.4981,-9.12
479.5981,-9.12
479.6981,-9.22
479.7981,-9.4
479.8981,-9.31
479.9981,-8.84
480.0981,-7.8
480.1981,-6.49
480.2981,-6.11
480.3981,-5.45
480.4981,-5.26
480.5981,-5.55
480.6981,-7.15
480.7981,-8.84
480.8981,-10.35
480.9981,-11.1
481.0981,-12.51
481.1981,-11.66
481.2981,-9.31
481.3981,-7.9
481.4981,-6.02
481.5981,-5.36
481.6981,-3.66
481.7981,-2.72
481.8981,-1.78
481.9981,-1.22
482.0981,-1.59
482.1981,-1.22
482.2981,-1.59
482.3981,-2.82
482.4981,-2.72
482.5981,-3.85
482.6981,-4.6
482.7981,-3.19
482.8981,-4.89
482.9981,-3.29
483.0981,-3.66
483.1981,-2.72
483.2981,-1.97
483.3981,-3.1
483.4981,-1.41
483.5981,-3.19
483.6981,-2.44
483.7981,-4.32
483.8981,-4.51
483.9981,-5.08
484.0981,-8.18
484.1981,-10.82
484.2981,-13.26
484.3981,-18.16
484.4981,-30.68
484.5981,-22.02
484.6981,-17.03
484.7981,-14.86
484.8981,-16.65
484.9981,-20.04
485.0981,-17.12
485.1981,-11.95
485.2981,-8.84
485.3981,-7.33
485.4981,-6.58
485.5981,-6.49
485.6981,-7.9
485.7981,-8.09
485.8981,-7.62
485.9981,-5.83
486.0981,-3.76
486.1981,-2.25
486.2981,-2.44
486.3981,-2.35
486.4981,-3.48
486.5981,-2.35
486.6981,-1.41
486.7981,-2.06
486.8981,-2.25
486.9981,-1.41
487.0981,-3.1
487.1981,-2.53
487.2981,-3.95
487.3981,-4.51
487.4981,-5.26
487.5981,-6.77
487.6981,-7.24
487.7981,-7.71
487.8981,-6.49
487.9981,-6.96
488.0981,-6.2
488.1981,-6.3
488.2981,-6.68
488.3981,-6.39
488.4981,-5.64
488.5981,-6.3
488.6981,-6.2
488.7981,-8.18
488.8981,-10.44
488.9981,-12.79
489.0981,-13.83
489.1981,-14.39
489.2981,-13.64
489.3981,-14.11
489.4981,-14.58
489.5981,-12.51
489.6981,-10.72
489.7981,-10.16
489.8981,-7.71
489.9981,-6.68
490.0981,-6.11
490.1981,-4.7
490.2981,-5.08
490.3981,-4.13
490.4981,-4.98
490.5981,-6.11
490.6981,-8.37
490.7981,-10.91
490.8981,-15.52
490.9981,-19.0
491.8981,-15.9
491.9981,-19.19
492.0981,-15.05
492.1981,-9.59
492.2981,-6.77
492.3981,-5.26
492.4981,-4.23
492.5981,-3.38
492.6981,-2.53
492.7981,-2.44
492.8981,-2.53
492.9981,-2.72
493.0981,-3.01
493.1981,-3.19
493.2981,-4.51
493.3981,-6.49
493.4981,-8.75
493.5981,-10.91
493.6981,-13.73
493.7981,-15.33
493.8981,-16.46
493.9981,-15.24
494.0981,-14.49
494.1981,-13.64
494.2981,-12.23
494.3981,-9.4
494.4981,-7.33
494.5981,-7.15
494.6981,-7.33
494.7981,-7.43
494.8981,-7.43
494.9981,-9.4
495.0981,-8.75
495.1981,-8.46
495.2981,-7.8
495.3981,-5.83
495.4981,-5.08
495.5981,-5.26
495.6981,-3.19
495.7981,-1.97
495.8981,-2.72
495.9981,-2.53
496.0981,-2.35
496.1981,-2.06
496.2981,-2.16
496.3981,-3.76
496.4981,-3.38
496.5981,-5.64
496.6981,-6.11
496.7981,-7.15
496.8981,-7.99
496.9981,-7.52
497.0981,-6.96
497.1981,-6.3
497.2981,-7.33
497.3981,-7.33
497.4981,-6.11
497.5981,-7.24
497.6981,-8.28
497.7981,-12.6
497.8981,-18.82
497.9981,-20.6
498.0981,-17.31
498.1981,-15.15
498.2981,-16.75
498.3981,-21.73
498.4981,-24.18
498.5981,-16.18
498.6981,-10.72
498.7981,-8.56
498.8981,-8.75
498.9981,-8.56
499.0981,-7.15
499.1981,-7.33
499.2981,-8.46
499.3981,-7.99
499.4981,-8.18
499.5981,-9.22
499.6981,-7.99
499.7981,-8.75
499.8981,-7.43
499.9981,-6.86
500.0981,-5.55
500.1981,-4.23
500.2981,-3.48
500.3981,-2.16
500.4981,-1.5
500.5981,-1.03
500.6981,-0.65
500.7981,-0.65
500.8981,-1.97
500.9981,-2.16
501.0981,-2.25
501.1981,-1.31
501.2981,-2.25
501.3981,-2.91
501.4981,-4.04
501.5981,-4.89
501.6981,-6.77
501.7981,-8.09
501.8981,-8.93
501.9981,-9.4
502.0981,-9.5
502.1981,-10.44
502.2981,-10.72
502.3981,-10.63
502.4981,-12.51
502.5981,-13.17
502.6981,-14.86
502.7981,-15.62
502.8981,-21.73
502.9981,-28.23
503.0981,-20.6
503.1981,-15.05
503.2981,-12.79
503.3981,-10.63
503.4981,-10.63
503.5981,-11.29
503.6981,-12.51
503.7981,-14.68
503.8981,-19.1
503.9981,-17.31
504.0981,-12.42
504.1981,-9.4
504.2981,-7.05
504.3981,-5.26
504.4981,-5.73
504.5981,-5.17
504.6981,-5.64
504.7981,-6.3
504.8981,-6.86
504.9981,-8.28
505.0981,-8.84
505.1981,-7.33
505.2981,-7.15
505.3981,-5.64
505.4981,-5.26
505.5981,-4.04
505.6981,-4.89
505.7981,-4.79
505.8981,-5.17
505.9981,-5.73
506.0981,-6.49
506.1981,-6.77
506.2981,-7.15
506.3981,-7.33
506.4981,-9.97
506.5981,-11.29
506.6981,-14.96
506.7981,-17.12
506.8981,-16.18
506.9981,-12.7
507.0981,-11.29
507.1981,-9.97
507.2981,-9.59
507.3981,-8.09
507.4981,-8.37
507.5981,-9.03
507.6981,-10.25
507.7981,-10.53
507.8981,-13.08
507.9981,-13.36
508.0981,-13.36
508.1981,-9.69
508.2981,-7.05
508.3981,-5.55
508.4981,-4.51
508.5981,-3.29
508.6981,-2.63
508.7981,-1.12
508.8981,-2.06
508.9981,-1.31
509.0981,-0.65
509.1981,-1.97
509.2981,-1.78
509.3981,-3.66
509.4981,-4.42
509.5981,-7.15
509.6981,-11.48
509.7981,-15.15
509.8981,-20.6
509.9981,-18.82
510.0981,-15.9
510.1981,-12.51
510.2981,-11.0
510.3981,-7.52
510.4981,-7.43
510.5981,-6.86
510.6981,-6.86
510.7981,-7.99
510.8981,-9.69
510.9981,-11.48
511.0981,-15.8
511.1981,-21.64
511.2981,-23.9
511.3981,-16.09
511.4981,-12.13
511.5981,-9.4
511.6981,-5.45
511.7981,-4.89
511.8981,-3.1
511.9981,-2.72
512.0981,-2.63
512.1981,-2.16
512.2981,-2.53
512.3981,-4.51
512.4981,-4.79
512.5981,-5.36
512.6981,-6.96
512.7981,-7.71
512.8981,-6.2
512.9981,-5.26
513.0981,-4.23
513.1981,-6.02
513.2981,-4.98
513.3981,-4.7
513.4981,-4.6
513.5981,-4.42
513.6981,-3.85
513.7981,-3.85
513.8981,-2.91
513.9981,-3.66
514.0981,-3.48
514.1981,-4.89
514.2981,-6.11
514.3981,-6.11
514.4981,-8.28
514.5981,-8.93
514.6981,-9.78
514.7981,-10.53
514.8981,-9.97
514.9981,-11.95
515.0981,-11.38
515.1981,-10.82
515.2981,-10.72
515.3981,-11.76
515.4981,-13.17
515.5981,-15.9
515.6981,-21.08
515.7981,-27.48
515.8981,-33.03
515.9981,-30.02
516.0981,-23.33
516.1981,-16.84
516.2981,-12.42
516.3981,-9.88
516.4981,-8.65
516.5981,-7.71
516.6981,-5.73
516.7981,-4.7
516.8981,-3.76
516.9981,-2.53
517.0981,-3.01
517.1981,-2.91
517.2981,-2.25
517.3981,-1.97
517.4981,-3.1
517.5981,-3.57
517.6981,-3.57
517.7981,-3.85
517.8981,-3.76
517.9981,-3.48
518.0981,-4.13
518.1981,-4.7
518.2981,-3.66
518.3981,-4.51
518.4981,-5.55
518.5981,-6.39
518.6981,-5.45
518.7981,-5.36
518.8981,-5.64
518.9981,-6.68
519.0981,-7.62
519.1981,-10.63
519.2981,-13.17
519.3981,-16.28
519.4981,-19.0
519.5981,-18.91
519.6981,-16.28
519.7981,-13.08
519.8981,-10.16
519.9981,-8.28
520.0981,-7.62
520.1981,-5.83
520.2981,-4.13
520.3981,-5.36
520.4981,-4.04
520.5981,-4.32
520.6981,-5.64
520.7981,-5.17
520.8981,-6.39
520.9981,-7.62
521.0981,-8.09
521.1981,-7.9
521.2981,-8.65
521.3981,-8.65
521.4981,-8.28
521.5981,-8.56
521.6981,-11.57
521.7981,-16.09
521.8981,-15.43
521.9981,-11.48
522.0981,-7.8
522.1981,-6.49
522.2981,-5.17
522.3981,-5.92
522.4981,-7.33
522.5981,-9.31
522.6981,-11.85
522.7981,-12.32
522.8981,-11.19
522.9981,-10.25
523.0981,-8.75
523.1981,-7.52
523.2981,-6.77
523.3981,-6.02
523.4981,-6.58
523.5981,-5.83
523.6981,-5.64
523.7981,-5.64
523.8981,-6.77
523.9981,-9.12
524.0981,-12.51
524.1981,-19.76
524.2981,-23.71
524.3981,-13.45
524.4981,-10.16
524.5981,-7.62
524.6981,-5.92
524.7981,-4.42
524.8981,-4.6
524.9981,-3.48
525.0981,-3.1
525.1981,-3.01
525.2981,-4.13
525.3981,-4.13
525.4981,-4.51
525.5981,-4.89
525.6981,-4.51
525.7981,-5.36
525.8981,-4.98
525.9981,-3.95
526.0981,-3.85
526.1981,-3.19
526.2981,-3.01
526.3981,-2.91
526.4981,-2.72
526.5981,-2.44
526.6981,-2.16
526.7981,-2.16
526.8981,-2.72
526.9981,-3.66
527.0981,-4.6
527.1981,-6.68
527.2981,-9.31
527.3981,-12.51
527.4981,-18.16
527.5981,-28.13
527.6981,-28.23
527.7981,-27.0
527.8981,-21.26
527.9981,-15.62
528.0981,-12.23
528.1981,-9.22
528.2981,-8.37
528.3981,-8.65
528.4981,-8.09
528.5981,-7.05
528.6981,-6.39
528.7981,-6.39
528.8981,-6.86
528.9981,-7.15
529.0981,-6.96
529.1981,-6.02
529.2981,-5.64
529.3981,-5.92
529.4981,-5.83
529.5981,-5.55
529.6981,-4.23
529.7981,-4.32
529.8981,-4.13
529.9981,-3.95
530.0981,-4.7
530.1981,-4.13
530.2981,-5.17
530.3981,-5.73
530.4981,-5.55
530.5981,-6.39
530.6981,-7.62
530.7981,-7.05
530.8981,-6.58
530.9981,-6.49
531.0981,-5.55
531.1981,-4.7
531.2981,-4.79
531.3981,-4.13
531.4981,-3.66
531.5981,-4.04
531.6981,-4.51
531.7981,-5.55
531.8981,-5.83
531.9981,-5.36
532.0981,-5.26
532.1981,-7.33
532.2981,-7.43
532.3981,-10.44
532.4981,-12.51
532.5981,-13.45
532.6981,-13.73
532.7981,-11.19
532.8981,-9.59
532.9981,-6.58
533.0981,-5.73
533.1981,-4.89
533.2981,-5.26
533.3981,-6.68
533.4981,-8.28
533.5981,-10.53
533.6981,-16.09
533.7981,-18.53
533.8981,-14.86
533.9981,-12.04
534.0981,-9.69
534.1981,-7.33
534.2981,-5.26
534.3981,-4.6
534.4981,-2.16
534.5981,-2.06
534.6981,-2.06
534.7981,-2.44
534.8981,-1.88
534.9981,-2.91
535.0981,-2.35
535.1981,-4.23
535.2981,-4.23
535.3981,-5.36
535.4981,-7.62
535.5981,-8.93
535.6981,-12.42
535.7981,-15.99
535.8981,-12.32
535.9981,-8.28
536.0981,-5.45
536.1981,-4.6
536.2981,-4.13
536.3981,-2.91
536.4981,-3.38
536.5981,-2.82
536.6981,-3.38
536.7981,-4.13
536.8981,-4.79
536.9981,-5.73
537.0981,-6.11
537.1981,-6.11
537.2981,-5.45
537.3981,-5.55
537.4981,-4.23
537.5981,-2.72
537.6981,-3.1
537.7981,-3.01
537.8981,-1.31
537.9981,-1.88
538.0981,-1.22
538.1981,-2.25
538.2981,-2.91
538.3981,-4.04
538.4981,-4.51
538.5981,-5.83
538.6981,-7.71
538.7981,-7.24
538.8981,-5.64
538.9981,-6.3
539.0981,-5.83
539.1981,-4.32
539.2981,-4.7
539.3981,-5.45
539.4981,-7.43
539.5981,-9.5
539.6981,-14.3
539.7981,-14.68
539.8981,-10.35
539.9981,-8.09
540.0981,-6.58
540.1981,-5.83
540.2981,-5.73
540.3981,-5.45
540.4981,-6.77
540.5981,-6.68
540.6981,-7.24
540.7981,-6.68
540.8981,-5.55
540.9981,-4.89
541.0981,-4.89
541.1981,-4.23
541.2981,-4.7
541.3981,-5.64
541.4981,-6.02
541.5981,-7.24
541.6981,-6.02
541.7981,-6.2
541.8981,-3.85
541.9981,-3.38
542.0981,-3.66
542.1981,-3.19
542.2981,-2.91
542.3981,-2.91
542.4981,-2.44
542.5981,-2.16
542.6981,-1.59
542.7981,-1.69
542.8981,-0.56
542.9981,-0.84
543.0981,-0.84
543.1981,-0.93
543.2981,-1.88
543.3981,-2.72
543.4981,-4.6
543.5981,-4.42
543.6981,-3.95
543.7981,-2.91
543.8981,-3.38
543.9981,-3.38
544.0981,-3.19
544.1981,-3.76
544.2981,-3.95
544.3981,-4.23
544.4981,-3.57
544.5981,-2.72
544.6981,-2.25
544.7981,-2.91
544.8981,-2.53
544.9981,-2.16
545.0981,-3.38
545.1981,-3.38
545.2981,-4.98
545.3981,-6.68
545.4981,-8.28
545.5981,-12.7
545.6981,-16.75
545.7981,-13.92
545.8981,-8.46
545.9981,-5.64
546.0981,-3.85
546.1981,-2.44
546.2981,-1.97
546.3981,-3.1
546.4981,-3.38
546.5981,-3.1
546.6981,-5.92
546.7981,-6.02
546.8981,-7.15
546.9981,-6.77
547.0981,-6.49
547.1981,-4.79
547.2981,-3.95
547.3981,-3.66
547.4981,-1.88
547.5981,-1.31
547.6981,0.19
547.7981,-0.09
547.8981,0.19
547.9981,0.76
548.0981,0.85
548.1981,-0.93
548.2981,-2.16
548.3981,-1.59
548.4981,-2.06
548.5981,-2.82
548.6981,-2.25
548.7981,-1.88
548.8981,-2.35
548.9981,-1.59
549.0981,-1.12
549.1981,-1.03
549.2981,-0.18
549.3981,-0.65
549.4981,-1.03
549.5981,-1.12
549.6981,-1.41
549.7981,-2.72
549.8981,-2.53
549.9981,-4.51
550.0981,-5.17
550.1981,-5.36
550.2981,-4.13
550.3981,-3.19
550.4981,-1.59
550.5981,-0.75
550.6981,0.38
550.7981,0.01
550.8981,-0.18
550.9981,-0.75
551.0981,0.19
551.1981,-0.65
551.2981,-2.25
551.3981,-4.7
551.4981,-7.71
551.5981,-12.42
551.6981,-15.43
551.7981,-11.85
551.8981,-7.62
551.9981,-4.89
552.0981,-3.48
552.1981,-1.69
552.2981,-0.56
552.3981,-0.46
552.4981,-0.37
552.5981,-1.03
552.6981,-1.5
552.7981,-0.75
552.8981,-0.84
552.9981,-1.41
553.0981,-1.5
553.1981,-1.41
553.2981,-1.69
553.3981,-1.12
553.4981,-1.03
553.5981,-0.09
553.6981,0.1
553.7981,0.76
553.8981,0.76
553.9981,0.38
554.0981,0.29
554.1981,-0.18
554.2981,-0.46
554.3981,-1.12
554.4981,-0.75
554.5981,-1.69
554.6981,-1.41
554.7981,-1.97
554.8981,-4.04
554.9981,-4.79
555.0981,-3.38
555.1981,-3.01
555.2981,-2.25
555.3981,-2.53
555.4981,-1.22
555.5981,-0.37
555.6981,-1.12
555.7981,-0.93
555.8981,-0.84
555.9981,0.1
556.0981,-0.56
556.1981,-0.09
556.2981,0.76
556.3981,0.76
556.4981,0.76
556.5981,1.04
556.6981,1.23
556.7981,0.38
556.8981,1.14
556.9981,0.38
557.0981,1.14
557.1981,0.95
557.2981,0.57
557.3981,-2.53
557.4981,-7.24
557.5981,-11.1
557.6981,-12.89
557.7981,-8.65
557.8981,-5.92
557.9981,-3.1
558.0981,-2.44
558.1981,-2.06
558.2981,-2.82
558.3981,-3.38
558.4981,-3.57
558.5981,-3.19
558.6981,-2.63
558.7981,-1.69
558.8981,0.1
558.9981,0.29
559.0981,0.95
559.1981,1.04
559.2981,1.14
559.3981,1.14
559.4981,0.38
559.5981,0.29
559.6981,-0.65
559.7981,-0.37
559.8981,-0.84
559.9981,-0.93
560.0981,-1.59
560.1981,-0.65
560.2981,0.29
560.3981,0.76
560.4981,0.1
560.5981,1.32
560.6981,0.29
560.7981,1.51
560.8981,1.7
560.9981,1.51
561.0981,1.61
561.1981,2.08
561.2981,1.23
561.3981,1.61
561.4981,0.95
561.5981,-0.28
561.6981,0.85
561.7981,1.61
561.8981,1.42
561.9981,1.61
562.0981,2.92
562.1981,2.36
562.2981,2.45
562.3981,1.89
562.4981,1.79
562.5981,0.85
562.6981,1.32
562.7981,0.1
562.8981,-0.37
562.9981,0.01
563.0981,-2.82
563.1981,-3.66
563.2981,-5.64
563.3981,-7.71
563.4981,-11.76
563.5981,-15.8
563.6981,-13.26
563.7981,-7.8
563.8981,-3.95
563.9981,-2.35
564.0981,-1.59
564.1981,-0.09
564.2981,0.1
564.3981,-0.84
564.4981,0.1
564.5981,0.01
564.6981,0.85
564.7981,1.23
564.8981,2.08
564.9981,2.17
565.0981,3.02
565.1981,3.11
565.2981,2.92
565.3981,3.68
565.4981,3.3
565.5981,2.83
565.6981,3.3
565.7981,2.27
565.8981,1.42
565.9981,1.23
566.0981,0.76
566.1981,0.38
566.2981,-1.12
566.3981,-1.22
566.4981,-1.22
566.5981,-1.31
566.6981,-0.56
566.7981,0.48
566.8981,-0.28
566.9981,0.38
567.0981,-0.37
567.1981,-0.37
567.2981,-0.56
567.3981,-1.12
567.4981,-1.69
567.5981,-0.09
567.6981,-0.46
567.7981,-0.93
567.8981,0.29
567.9981,-0.09
568.0981,0.01
568.1981,-0.37
568.2981,0.95
568.3981,-0.09
568.4981,1.04
568.5981,0.67
568.6981,0.85
568.7981,1.89
568.8981,1.23
568.9981,0.85
569.0981,0.29
569.1981,-0.75
569.2981,-2.63
569.3981,-5.55
569.4981,-9.78
569.5981,-12.13
569.6981,-7.15
569.7981,-4.04
569.8981,-0.84
569.9981,1.42
570.0981,1.89
570.1981,2.36
570.2981,3.49
570.3981,3.58
570.4981,2.55
570.5981,3.49
570.6981,3.02
570.7981,1.89
570.8981,1.61
570.9981,1.7
571.0981,1.32
571.1981,0.1
571.2981,-0.93
571.3981,-2.06
571.4981,-1.97
571.5981,-2.25
571.6981,-1.22
571.7981,-2.72
571.8981,-1.69
571.9981,-1.03
572.0981,-1.97
572.1981,-1.78
572.2981,-1.12
572.3981,-1.59
572.4981,-0.18
572.5981,0.29
572.6981,0.57
572.7981,0.85
572.8981,0.85
572.9981,1.23
573.0981,1.61
573.1981,2.92
573.2981,3.02
573.3981,3.3
573.4981,3.68
573.5981,3.68
573.6981,3.96
573.7981,5.18
573.8981,4.43
573.9981,2.83
574.0981,3.3
574.1981,2.27
574.2981,2.45
574.3981,0.1
574.4981,1.14
574.5981,1.32
574.6981,0.76
574.7981,1.04
574.8981,0.1
574.9981,0.48
575.0981,-0.37
575.1981,-1.78
575.2981,-3.19
575.3981,-5.55
575.4981,-11.1
575.5981,-11.76
575.6981,-8.37
575.7981,-5.64
575.8981,-4.32
575.9981,-3.76
576.0981,-2.44
576.1981,-0.93
576.2981,0.19
576.3981,0.57
576.4981,1.23
576.5981,0.85
576.6981,1.23
576.7981,1.61
576.8981,1.23
576.9981,0.19
577.0981,0.57
577.1981,0.01
577.2981,-0.18
577.3981,-0.56
577.4981,0.19
577.5981,-0.09
577.6981,0.67
577.7981,0.95
577.8981,2.64
577.9981,2.92
578.0981,3.21
578.1981,3.96
578.2981,3.68
578.3981,3.87
578.4981,4.62
578.5981,4.9
578.6981,4.9
578.7981,3.39
578.8981,2.36
578.9981,2.64
579.0981,1.32
579.1981,1.04
579.2981,1.32
579.3981,1.61
579.4981,0.85
579.5981,0.85
579.6981,0.48
579.7981,1.04
579.8981,0.57
579.9981,-0.28
580.0981,-1.03
580.1981,-0.46
580.2981,-0.75
580.3981,-0.84
580.4981,-1.69
580.5981,-1.97
580.6981,-2.25
580.7981,-1.03
580.8981,-1.59
580.9981,-0.09
581.0981,-0.09
581.1981,-1.78
581.2981,-3.38
581.3981,-7.05
581.4981,-10.91
581.5981,-9.4
581.6981,-3.95
581.7981,0.01
581.8981,1.51
581.9981,3.11
582.0981,3.77
582.1981,4.71
582.2981,3.11
582.3981,2.74
582.4981,2.74
582.5981,1.61
582.6981,1.14
582.7981,0.95
582.8981,1.51
582.9981,1.23
583.0981,1.14
583.1981,0.48
583.2981,0.95
583.3981,-0.18
583.4981,0.19
583.5981,0.29
583.6981,-0.18
583.7981,-0.09
583.8981,-0.84
583.9981,-0.75
584.0981,-1.5
584.1981,-1.41
584.2981,-1.41
584.3981,-1.88
584.4981,-1.22
584.5981,-1.69
584.6981,-0.84
584.7981,-0.18
584.8981,0.57
584.9981,1.14
585.0981,1.79
585.1981,1.42
585.2981,0.95
585.3981,1.14
585.4981,0.67
585.5981,0.95
585.6981,1.04
585.7981,0.95
585.8981,1.61
585.9981,1.7
586.0981,1.89
586.1981,2.55
586.2981,2.83
586.3981,3.96
586.4981,3.39
586.5981,3.39
586.6981,2.92
586.7981,3.68
586.8981,4.43
586.9981,2.83
587.0981,2.45
587.1981,0.95
587.2981,-3.1
587.3981,-7.8
587.4981,-11.19
587.5981,-7.9
587.6981,-5.26
587.7981,-2.44
587.8981,-0.37
587.9981,0.57
588.0981,0.1
588.1981,-0.56
588.2981,-0.84
588.3981,-2.16
588.4981,-2.35
588.5981,-3.76
588.6981,-4.42
588.7981,-4.51
588.8981,-5.64
588.9981,-3.85
589.0981,-3.38
589.1981,-1.69
589.2981,-1.12
589.3981,1.14
589.4981,2.27
589.5981,1.98
589.6981,2.36
589.7981,3.49
589.8981,3.87
589.9981,3.49
590.0981,2.83
590.1981,2.45
590.2981,2.27
590.3981,2.27
590.4981,2.64
590.5981,2.27
590.6981,1.89
590.7981,1.61
590.8981,2.17
590.9981,1.32
591.0981,2.55
591.1981,3.3
591.2981,2.55
591.3981,2.74
591.4981,2.27
591.5981,0.95
591.6981,1.51
591.7981,0.57
591.8981,0.1
591.9981,-0.56
592.0981,-1.03
592.1981,-0.37
592.2981,-1.41
592.3981,-1.41
592.4981,-1.22
592.5981,-0.46
592.6981,-0.65
592.7981,0.01
592.8981,0.85
592.9981,-0.84
593.0981,-2.53
593.1981,-4.32
593.2981,-6.96
593.3981,-11.95
593.4981,-13.45
593.5981,-8.56
593.6981,-5.73
593.7981,-4.04
593.8981,-1.88
593.9981,-0.46
594.0981,-0.46
594.1981,0.67
594.2981,1.7
594.3981,2.27
594.4981,2.83
594.5981,3.21
594.6981,3.3
594.7981,2.55
594.8981,3.3
594.9981,3.49
595.0981,3.02
595.1981,2.55
595.2981,1.89
595.3981,2.17
595.4981,1.61
595.5981,2.36
595.6981,1.61
595.7981,1.89
595.8981,1.14
595.9981,1.51
596.0981,1.42
596.1981,1.7
596.2981,0.95
596.3981,0.1
596.4981,-0.46
596.5981,-1.78
596.6981,-2.91
596.7981,-3.29
596.8981,-5.36
596.9981,-5.26
597.0981,-5.36
597.1981,-3.76
597.2981,-3.76
597.3981,-1.5
597.4981,-1.12
597.5981,0.38
597.6981,0.48
597.7981,2.64
597.8981,2.92
597.9981,3.02
598.0981,3.68
598.1981,4.05
598.2981,3.58
598.3981,2.17
598.4981,3.02
598.5981,2.64
598.6981,2.45
598.7981,2.36
598.8981,1.98
598.9981,1.32
599.0981,-0.93
599.1981,-3.01
599.2981,-6.3
599.3981,-11.29
599.4981,-9.88
599.5981,-5.26
599.6981,-2.35
599.7981,-0.46
599.8981,-0.46
599.9981,0.1
600.0981,0.01
600.1981,-1.59
600.2981,-2.25
600.3981,-2.35
600.4981,-2.35
600.5981,-3.48
600.6981,-3.01
600.7981,-2.25
600.8981,-0.46
600.9981,-0.65
601.0981,-1.31
601.1981,-0.75
601.2981,-0.37
601.3981,-1.41
601.4981,-1.97
601.5981,-2.82
601.6981,-4.23
601.7981,-3.95
601.8981,-3.19
601.9981,-2.35
602.0981,-1.41
602.1981,-0.93
602.2981,0.95
602.3981,1.79
602.4981,1.7
602.5981,2.55
602.6981,3.39
602.7981,2.74
602.8981,2.17
602.9981,2.55
603.0981,3.21
603.1981,2.45
603.2981,2.36
603.3981,1.61
603.4981,2.08
603.5981,2.83
603.6981,2.08
603.7981,2.08
603.8981,2.55
603.9981,1.89
604.0981,2.27
604.1981,2.64
604.2981,1.98
604.3981,2.83
604.4981,1.7
604.5981,1.61
604.6981,-0.09
604.7981,-1.5
604.8981,-3.01
604.9981,-6.3
605.0981,-8.93
605.1981,-11.38
605.2981,-14.3
605.3981,-16.84
605.4981,-12.6
605.5981,-8.09
605.6981,-3.57
605.7981,-2.06
605.8981,-0.84
605.9981,0.48
606.0981,1.42
606.1981,1.98
606.2981,0.95
606.3981,2.27
606.4981,1.89
606.5981,1.7
606.6981,2.27
606.7981,0.95
606.8981,2.36
606.9981,2.74
607.0981,1.51
607.1981,2.64
607.2981,1.89
607.3981,1.7
607.4981,1.42
607.5981,1.42
607.6981,1.89
607.7981,0.85
607.8981,0.48
607.9981,0.48
608.0981,-0.56
608.1981,-0.09
608.2981,-1.97
608.3981,-1.78
608.4981,-2.72
608.5981,-2.53
608.6981,-1.41
608.7981,0.19
608.8981,-1.03
608.9981,-0.28
609.0981,-0.37
609.1981,-0.84
609.2981,-0.28
609.3981,-0.28
609.4981,0.48
609.5981,-0.09
609.6981,-0.75
609.7981,-0.93
609.8981,-1.69
609.9981,-1.22
610.0981,-0.75
610.1981,-1.22
610.2981,-0.46
610.3981,-0.09
610.4981,0.29
610.5981,0.57
610.6981,0.76
610.7981,2.08
610.8981,1.42
610.9981,0.95
611.0981,-0.46
611.1981,-4.23
611.2981,-9.5
611.3981,-10.82
611.4981,-6.11
611.5981,-2.44
611.6981,-0.75
611.7981,1.14
611.8981,2.17
611.9981,2.92
612.0981,3.21
612.1981,3.11
612.2981,1.32
612.3981,1.61
612.4981,1.51
612.5981,1.51
612.6981,0.1
612.7981,0.76
612.8981,-1.12
612.9981,-1.22
613.0981,-3.01
613.1981,-3.19
613.2981,-4.6
613.3981,-5.17
613.4981,-4.89
613.5981,-3.76
613.6981,-2.16
613.7981,-1.97
613.8981,-0.56
613.9981,0.67
614.0981,0.57
614.1981,0.38
614.2981,0.19
614.3981,1.04
614.4981,0.85
614.5981,0.76
614.6981,1.89
614.7981,1.51
614.8981,2.92
614.9981,2.17
615.0981,3.3
615.1981,3.68
615.2981,4.34
615.3981,3.96
615.4981,2.92
615.5981,2.74
615.6981,2.27
615.7981,2.55
615.8981,2.45
615.9981,2.17
616.0981,1.14
616.1981,0.85
616.2981,0.1
616.3981,-0.84
616.4981,-1.12
616.5981,-0.56
616.6981,-0.37
616.7981,0.1
616.8981,-0.28
616.9981,-1.59
617.0981,-3.29
617.1981,-6.02
617.2981,-11.19
617.3981,-10.63
617.4981,-7.43
617.5981,-4.6
617.6981,-0.93
617.7981,-0.75
617.8981,-0.46
617.9981,-0.84
618.0981,-1.59
618.1981,-0.93
618.2981,-0.93
618.3981,-0.37
618.4981,0.95
618.5981,0.67
618.6981,0.48
618.7981,1.42
618.8981,1.7
618.9981,1.04
619.0981,0.95
619.1981,1.04
619.2981,1.7
619.3981,1.61
619.4981,1.61
619.5981,0.76
619.6981,1.32
619.7981,1.51
619.8981,2.36
619.9981,2.27
620.0980999999999,2.55
620.1981000000001,3.02
620.2981,2.92
620.3981,3.21
620.4981,3.39
620.5980999999999,3.11
620.6981000000001,2.83
620.7981,1.98
620.8981,1.79
620.9981,0.76
621.0980999999999,0.48
621.1981000000001,0.19
621.2981,-1.03
621.3981,-1.03
621.4981,-0.09
621.5980999999999,-0.09
621.6981000000001,-0.56
621.7981,-0.18
621.8981,0.29
621.9981,0.67
622.0980999999999,-0.18
622.1981000000001,-0.37
622.2981,-0.09
622.3981,0.85
622.4981,1.04
622.5980999999999,0.85
622.6981000000001,1.42
622.7981,1.61
622.8981,-0.09
622.9981,-0.84
623.0980999999999,-2.72
623.1981000000001,-6.86
623.2981,-10.53
623.3981,-7.33
623.4981,-2.53
623.5980999999999,0.19
623.6981000000001,2.36
623.7981,2.08
623.8981,3.49
623.9981,3.49
624.0980999999999,2.17
624.1981000000001,1.89
624.2981,1.32
624.3981,1.23
624.4981,-0.28
624.5980999999999,0.01
624.6981000000001,-0.37
624.7981,-0.18
624.8981,-0.56
624.9981,-0.18
625.0980999999999,0.48
625.1981000000001,0.38
625.2981,1.89
625.3981,2.55
625.4981,2.45
625.5980999999999,1.89
625.6981000000001,1.79
625.7981,1.61
625.8981,0.95
625.9981,0.38
626.0980999999999,-0.84
626.1981000000001,-0.46
626.2981,-0.37
626.3981,0.29
626.4981,1.61
626.5980999999999,0.85
626.6981000000001,1.61
626.7981,1.89
626.8981,2.83
626.9981,2.45
627.0980999999999,3.02
627.1981000000001,1.79
627.2981,1.89
627.3981,1.32
627.4981,1.14
627.5980999999999,0.1
627.6981000000001,1.98
627.7981,1.7
627.8981,1.89
627.9981,2.92
628.0980999999999,3.77
628.1981000000001,4.43
628.2981,3.68
628.3981,4.62
628.4981,3.87
628.5980999999999,3.96
628.6981000000001,4.34
628.7981,3.49
628.8981,1.51
628.9981,-0.09
629.0980999999999,-4.13
629.1981000000001,-10.35
629.2981,-12.7
629.3981,-8.65
629.4981,-4.7
629.5980999999999,-3.38
629.6981000000001,-2.44
629.7981,-0.84
629.8981,-1.41
629.9981,0.85
630.0980999999999,1.61
630.1981000000001,0.67
630.2981,1.14
630.3981,1.23
630.4981,-0.09
630.5980999999999,1.32
630.6981000000001,0.48
630.7981,0.57
630.8981,0.95
630.9981,1.42
631.0980999999999,2.17
631.1981000000001,2.55
631.2981,2.83
631.3981,3.21
631.4981,2.64
631.5980999999999,2.55
631.6981000000001,2.83
631.7981,2.36
631.8981,2.92
631.9981,3.87
632.0980999999999,2.36
632.1981000000001,3.11
632.2981,2.45
632.3981,1.7
632.4981,1.04
632.5980999999999,1.23
632.6981000000001,0.76
632.7981,0.38
632.8981,-0.18
632.9981,0.48
633.0980999999999,1.32
633.1981000000001,1.61
633.2981,0.57
633.3981,2.08
633.4981,1.89
633.5980999999999,2.55
633.6981000000001,2.74
633.7981,2.55
633.8981,1.89
633.9981,2.08
634.0980999999999,2.17
634.1981000000001,1.79
634.2981,2.45
634.3981,2.83
634.4981,2.55
634.5980999999999,1.98
634.6981000000001,2.55
634.7981,1.14
634.8981,-0.28
634.9981,-2.63
635.0980999999999,-5.17
635.1981000000001,-10.44
635.2981,-10.06
635.3981,-5.08
635.4981,-2.25
635.5980999999999,-0.18
635.6981000000001,0.57
635.7981,0.85
635.8981,0.57
635.9981,0.85
636.0980999999999,2.08
636.1981000000001,2.74
636.2981,2.92
636.3981,2.92
636.4981,3.58
636.5980999999999,3.58
636.6981000000001,3.58
636.7981,3.96
636.8981,3.11
636.9981,3.02
637.0980999999999,2.74
637.1981000000001,3.3
637.2981,1.14
637.3981,1.23
637.4981,0.76
637.5980999999999,0.57
637.6981000000001,1.14
637.7981,2.55
637.8981,1.89
637.9981,1.61
638.0980999999999,1.42
638.1981000000001,1.42
638.2981,0.76
638.3981,0.67
638.4981,1.42
638.5980999999999,1.23
638.6981000000001,1.23
638.7981,1.51
638.8981,0.67
638.9981,0.48
639.0980999999999,0.38
639.1981000000001,1.42
639.2981,2.45
639.3981,2.27
639.4981,3.68
639.5980999999999,3.87
639.6981000000001,4.15
639.7981,3.87
639.8981,4.52
639.9981,4.24
640.0980999999999,3.49
640.1981000000001,3.21
640.2981,3.49
640.3981,3.11
640.4981,2.74
640.5980999999999,1.51
640.6981000000001,0.95
640.7981,0.19
640.8981,-1.03
640.9981,-3.95
641.0980999999999,-8.09
641.1981000000001,-12.32
641.2981,-9.78
641.3981,-4.42
641.4981,-2.16
641.5980999999999,0.48
641.6981000000001,1.42
641.7981,2.45
641.8981,1.61
641.9981,1.32
642.0980999999999,1.61
642.1981000000001,0.85
642.2981,0.85
642.3981,1.51
642.4981,2.36
642.5980999999999,2.55
642.6981000000001,3.3
642.7981,4.15
642.8981,3.77
642.9981,2.83
643.0980999999999,3.68
643.1981000000001,3.3
643.2981,3.11
643.3981,2.36
643.4981,1.14
643.5980999999999,1.51
643.6981000000001,1.32
643.7981,-0.09
643.8981,0.48
643.9981,-0.28
644.0980999999999,0.29
644.1981000000001,1.14
644.2981,0.76
644.3981,1.61
644.4981,3.11
644.5980999999999,2.36
644.6981000000001,1.79
644.7981,1.51
644.8981,3.21
644.9981,2.27
645.0980999999999,1.51
645.1981000000001,1.51
645.2981,1.51
645.3981,2.08
645.4981,1.61
645.5980999999999,2.08
645.6981000000001,2.08
645.7981,1.42
645.8981,1.98
645.9981,1.7
646.0980999999999,2.55
646.1981000000001,2.08
646.2981,2.64
646.3981,1.89
646.4981,2.45
646.5980999999999,1.79
646.6981000000001,0.48
646.7981,-0.56
646.8981,-2.53
646.9981,-4.6
647.0980999999999,-9.22
647.1981000000001,-11.19
647.2981,-6.77
647.3981,-3.29
647.4981,0.29
647.5980999999999,1.79
647.6981000000001,2.92
647.7981,3.49
647.8981,3.68
647.9981,4.52
648.0980999999999,4.43
648.1981000000001,3.3
648.2981,3.58
648.3981,3.3
648.4981,2.17
648.5980999999999,1.61
648.6981000000001,0.38
648.7981,0.76
648.8981,-0.28
648.9981,-0.65
649.0980999999999,0.29
649.1981000000001,0.19
649.2981,0.57
649.3981,0.76
649.4981,0.1
649.5980999999999,0.67
649.6981000000001,1.04
649.7981,0.1
649.8981,-0.09
649.9981,-0.56
650.0980999999999,-0.56
650.1981000000001,-0.28
650.2981,0.76
650.3981,0.38
650.4981,1.32
650.5980999999999,1.32
650.6981000000001,1.98
650.7981,2.27
650.8981,2.55
650.9981,3.21
651.0980999999999,2.83
651.1981000000001,3.87
651.2981,3.39
651.3981,2.55
651.4981,2.08
651.5980999999999,2.08
651.6981000000001,1.32
651.7981,0.48
651.8981,1.51
651.9981,0.38
652.0980999999999,-0.18
652.1981000000001,0.1
652.2981,-0.18
652.3981,1.32
652.4981,0.19
652.5980999999999,0.67
652.6981000000001,0.85
652.7981,-0.65
652.8981,-2.06
652.9981,-5.64
653.0980999999999,-10.72
653.1981000000001,-11.48
653.2981,-6.39
653.3981,-3.76
653.4981,-1.5
653.5980999999999,-1.12
653.6981000000001,-0.09
653.7981,1.14
653.8981,0.67
653.9981,1.32
654.0980999999999,1.7
654.1981000000001,1.7
654.2981,2.27
654.3981,1.98
654.4981,2.17
654.5980999999999,1.89
654.6981000000001,1.89
654.7981,0.29
654.8981,1.04
654.9981,-0.46
655.0980999999999,-1.03
655.1981000000001,0.19
655.2981,-0.37
655.3981,0.85
655.4981,1.61
655.5980999999999,1.32
655.6981000000001,1.14
655.7981,2.08
655.8981,2.17
655.9981,2.83
656.0980999999999,2.92
656.1981000000001,2.64
656.2981,1.7
656.3981,3.02
656.4981,1.23
656.5980999999999,0.38
656.6981000000001,1.04
656.7981,1.42
656.8981,0.95
656.9981,0.1
657.0980999999999,0.29
657.1981000000001,-0.09
657.2981,-1.22
657.3981,-0.84
657.4981,-0.93
657.5980999999999,-2.35
657.6981000000001,-1.78
657.7981,-2.06
657.8981,-3.19
657.9981,-2.16
658.0980999999999,-2.35
658.1981000000001,-1.97
658.2981,-1.78
658.3981,-1.12
658.4981,-1.41
658.5980999999999,-0.09
658.6981000000001,0.01
658.7981,-0.75
658.8981,-3.57
658.9981,-6.68
659.0980999999999,-10.82
659.1981000000001,-8.65
659.2981,-4.42
659.3981,-1.31
659.4981,1.04
659.5980999999999,1.98
659.6981000000001,1.7
659.7981,1.42
659.8981,1.98
659.9981,1.42
660.0980999999999,0.95
660.1981000000001,-0.18
660.2981,-0.56
660.3981,-0.37
660.4981,-0.37
660.5980999999999,-2.25
660.6981000000001,-0.93
660.7981,-0.93
660.8981,-0.65
660.9981,-1.12
661.0980999999999,-1.59
661.1981000000001,-1.22
661.2981,-1.78
661.3981,-2.63
661.4981,-2.82
661.5980999999999,-2.91
661.6981000000001,-3.85
661.7981,-3.01
661.8981,-2.63
661.9981,-2.25
662.0980999999999,-0.93
662.1981000000001,-0.84
662.2981,-0.65
662.3981,0.29
662.4981,-0.28
662.5980999999999,0.01
662.6981000000001,-0.75
662.7981,-0.18
662.8981,-1.12
662.9981,-2.16
663.0980999999999,-3.1
663.1981000000001,-3.29
663.2981,-3.19
663.3981,-1.59
663.4981,-0.75
663.5980999999999,-0.37
663.6981000000001,0.19
663.7981,0.01
663.8981,0.76
663.9981,1.23
664.0980999999999,1.61
664.1981000000001,1.51
664.2981,2.55
664.3981,1.61
664.4981,1.51
664.5980999999999,0.01
664.6981000000001,-1.69
664.7981,-3.38
664.8981,-7.24
664.9981,-11.57
665.0980999999999,-15.24
665.1981000000001,-11.38
665.2981,-7.43
665.3981,-5.17
665.4981,-2.63
665.5980999999999,-2.25
665.6981000000001,-1.88
665.7981,-1.5
665.8981,-2.72
665.9981,-3.85
666.0980999999999,-4.51
666.1981000000001,-6.02
666.2981,-6.2
666.3981,-7.05
666.4981,-7.05
666.5980999999999,-5.64
666.6981000000001,-3.1
666.7981,-2.72
666.8981,-1.88
666.9981,-0.37
667.0980999999999,0.29
667.1981000000001,0.1
667.2981,0.85
667.3981,0.67
667.4981,-0.56
667.5980999999999,0.76
667.6981000000001,0.57
667.7981,-0.93
667.8981,-0.09
667.9981,-1.31
668.0980999999999,-2.16
668.1981000000001,-1.5
668.2981,-1.97
668.3981,-1.97
668.4981,-2.44
668.5980999999999,-2.53
668.6981000000001,-1.12
668.7981,-1.59
668.8981,-2.25
668.9981,-3.57
669.0980999999999,-3.66
669.1981000000001,-4.7
669.2981,-4.79
669.3981,-5.17
669.4981,-5.73
669.5980999999999,-5.45
669.6981000000001,-7.24
669.7981,-7.43
669.8981,-6.02
669.9981,-5.26
670.0980999999999,-4.04
670.1981000000001,-4.13
670.2981,-3.57
670.3981,-3.95
670.4981,-3.85
670.5980999999999,-4.13
670.6981000000001,-6.02
670.7981,-7.43
670.8981,-11.29
670.9981,-17.22
671.0980999999999,-17.88
671.1981000000001,-12.98
671.2981,-8.84
671.3981,-7.05
671.4981,-4.6
671.5980999999999,-4.13
671.6981000000001,-2.72
671.7981,-2.35
671.8981,-1.97
671.9981,-1.12
672.0980999999999,-1.22
672.1981000000001,0.19
672.2981,-0.37
672.3981,0.19
672.4981,0.48
672.5980999999999,-1.03
672.6981000000001,-1.88
672.7981,-2.25
672.8981,-2.91
672.9981,-2.72
673.0980999999999,-3.66
673.1981000000001,-3.19
673.2981,-4.42
673.3981,-4.23
673.4981,-4.6
673.5980999999999,-4.98
673.6981000000001,-4.51
673.7981,-3.57
673.8981,-4.13
673.9981,-6.39
674.0980999999999,-6.77
674.1981000000001,-8.37
674.2981,-10.63
674.3981,-14.58
674.4981,-22.02
674.5980999999999,-26.06
674.6981000000001,-15.05
674.7981,-10.25
674.8981,-7.33
674.9981,-5.26
675.0980999999999,-3.29
675.1981000000001,-2.25
675.2981,-2.16
675.3981,-2.06
675.4981,-1.88
675.5980999999999,-1.12
675.6981000000001,-2.16
675.7981,-2.16
675.8981,-3.38
675.9981,-3.01
676.0980999999999,-3.85
676.1981000000001,-3.29
676.2981,-3.38
676.3981,-4.7
676.4981,-4.89
676.5980999999999,-5.26
676.6981000000001,-6.3
676.7981,-8.18
676.8981,-12.23
676.9981,-16.93
677.0980999999999,-14.96
677.1981000000001,-10.53
677.2981,-7.99
677.3981,-7.15
677.4981,-6.86
677.5980999999999,-8.46
677.6981000000001,-11.57
677.7981,-12.42
677.8981,-13.26
677.9981,-11.57
678.0980999999999,-10.63
678.1981000000001,-9.12
678.2981,-8.09
678.3981,-7.52
678.4981,-6.02
678.5980999999999,-6.39
678.6981000000001,-5.92
678.7981,-6.58
678.8981,-8.09
678.9981,-9.22
679.0980999999999,-10.82
679.1981000000001,-12.79
679.2981,-11.29
679.3981,-10.82
679.4981,-9.69
679.5980999999999,-8.65
679.6981000000001,-6.68
679.7981,-5.73
679.8981,-4.51
679.9981,-5.26
680.0980999999999,-4.23
680.1981000000001,-4.51
680.2981,-3.85
680.3981,-4.23
680.4981,-4.7
680.5980999999999,-6.02
680.6981000000001,-5.36
680.7981,-5.92
680.8981,-6.11
680.9981,-6.11
681.0980999999999,-4.7
681.1981000000001,-5.73
681.2981,-6.11
681.3981,-5.83
681.4981,-5.55
681.5980999999999,-5.92
681.6981000000001,-6.58
681.7981,-7.8
681.8981,-7.52
681.9981,-8.56
682.0980999999999,-10.53
682.1981000000001,-11.85
682.2981,-16.09
682.3981,-22.2
682.4981,-31.62
682.5980999999999,-22.2
682.6981000000001,-19.1
682.7981,-19.0
682.8981,-21.45
682.9981,-23.9
