Frequency(MHz),Power(dBmV/100kHz)_20260202_204320
107.8981,-82.27
107.9981,-54.22
108.0981,-54.51
108.1981,-53.57
108.2981,-53.09
108.3981,-51.02
108.4981,-50.93
108.5981,-51.97
108.6981,-51.68
108.7981,-51.59
108.8981,-52.25
108.9981,-52.25
109.0981,-53.85
109.1981,-54.41
109.2981,-54.6
109.3981,-55.26
109.4981,-55.35
109.5981,-55.64
109.6981,-54.41
109.7981,-52.91
109.8981,-53.75
109.9981,-52.44
110.0981,-52.91
110.1981,-53.47
110.2981,-52.62
110.3981,-52.91
110.4981,-54.13
110.5981,-55.64
110.6981,-56.01
110.7981,-54.79
110.8981,-55.82
110.9981,-55.82
111.0981,-54.13
111.1981,-52.62
111.2981,-52.53
111.3981,-52.62
111.4981,-52.81
111.5981,-53.19
111.6981,-53.0
111.7981,-51.68
111.8981,-51.4
111.9981,-52.34
112.0981,-52.62
112.1981,-52.91
112.2981,-53.28
112.3981,-54.04
112.4981,-53.85
112.5981,-52.72
112.6981,-52.81
112.7981,-53.0
112.8981,-52.91
112.9981,-52.06
113.0981,-52.06
113.1981,-51.21
113.2981,-51.02
113.3981,-52.15
113.4981,-52.53
113.5981,-51.31
113.6981,-53.19
113.7981,-54.22
113.8981,-55.26
113.9981,-55.17
114.0981,-53.94
114.1981,-52.81
114.2981,-54.22
114.3981,-54.32
114.4981,-54.22
114.5981,-53.0
114.6981,-54.51
114.7981,-55.07
114.8981,-54.51
114.9981,-53.94
115.0981,-53.85
115.1981,-55.45
115.2981,-53.09
115.3981,-53.19
115.4981,-53.09
115.5981,-53.94
115.6981,-54.51
115.7981,-53.28
115.8981,-51.97
115.9981,-52.62
116.0981,-53.38
116.1981,-53.57
116.2981,-53.28
116.3981,-53.94
116.4981,-52.25
116.5981,-52.81
116.6981,-53.09
116.7981,-52.06
116.8981,-53.0
116.9981,-51.97
117.0981,-52.34
117.1981,-54.51
117.2981,-54.04
117.3981,-53.47
117.4981,-54.13
117.5981,-54.04
117.6981,-53.57
117.7981,-53.38
117.8981,-53.47
117.9981,-53.09
118.0981,-52.81
118.1981,-53.75
118.2981,-54.79
118.3981,-54.32
118.4981,-53.09
118.5981,-52.81
118.6981,-52.15
118.7981,-52.34
118.8981,-52.25
118.9981,-53.94
119.0981,-55.45
119.1981,-53.75
119.2981,-53.94
119.3981,-53.57
119.4981,-53.0
119.5981,-52.44
119.6981,-51.68
119.7981,-52.72
119.8981,-52.53
119.9981,-53.57
120.0981,-54.13
120.1981,-53.38
120.2981,-52.72
120.3981,-52.81
120.4981,-53.85
120.5981,-53.47
120.6981,-52.53
120.7981,-52.91
120.8981,-53.57
120.9981,-54.04
121.0981,-52.72
121.1981,-52.44
121.2981,-51.21
121.3981,-51.31
121.4981,-51.12
121.5981,-49.71
121.6981,-50.55
121.7981,-51.97
121.8981,-50.65
121.9981,-51.68
122.0981,-53.28
122.1981,-55.26
122.2981,-55.26
122.3981,-56.11
122.4981,-56.39
122.5981,-54.79
122.6981,-52.91
122.7981,-52.25
122.8981,-51.87
122.9981,-51.59
123.0981,-53.19
123.1981,-52.44
123.2981,-52.62
123.3981,-53.38
123.4981,-53.19
123.5981,-53.47
123.6981,-54.22
123.7981,-54.41
123.8981,-53.94
123.9981,-54.88
124.0981,-55.35
124.1981,-54.98
124.2981,-51.97
124.3981,-51.12
124.4981,-51.87
124.5981,-52.25
124.6981,-51.59
124.7981,-50.65
124.8981,-49.61
124.9981,-50.84
125.0981,-52.53
125.1981,-52.53
125.2981,-53.09
125.3981,-54.13
125.4981,-56.86
125.5981,-55.54
125.6981,-53.66
125.7981,-52.72
125.8981,-53.57
125.9981,-54.13
126.0981,-53.19
126.1981,-51.78
126.2981,-52.06
126.3981,-52.53
126.4981,-53.66
126.5981,-55.26
126.6981,-54.79
126.7981,-54.22
126.8981,-54.6
126.9981,-55.07
127.0981,-53.38
127.1981,-52.91
127.2981,-54.04
127.3981,-54.32
127.4981,-53.38
127.5981,-53.94
127.6981,-54.13
127.7981,-51.68
127.8981,-52.34
127.9981,-53.28
128.0981,-53.09
128.1981,-53.66
128.2981,-54.51
128.3981,-54.98
128.4981,-55.07
128.5981,-54.6
128.6981,-55.64
128.7981,-54.13
128.8981,-52.72
128.9981,-52.91
129.0981,-53.66
129.1981,-52.81
129.2981,-51.97
129.3981,-51.4
129.4981,-51.02
129.5981,-52.53
129.6981,-53.94
129.7981,-54.04
129.8981,-54.98
129.9981,-53.47
130.0981,-53.09
130.1981,-53.57
130.2981,-54.22
130.3981,-54.88
130.4981,-55.73
130.5981,-54.69
130.6981,-53.28
130.7981,-52.72
130.8981,-53.0
130.9981,-53.19
131.0981,-53.0
131.1981,-54.98
131.2981,-53.47
131.3981,-52.72
131.4981,-53.57
131.5981,-54.79
131.6981,-54.98
131.7981,-53.28
131.8981,-54.13
131.9981,-54.88
132.0981,-54.51
132.1981,-54.51
132.2981,-54.22
132.3981,-52.34
132.4981,-51.87
132.5981,-51.87
132.6981,-53.47
132.7981,-52.44
132.8981,-52.34
132.9981,-51.31
133.0981,-53.47
133.1981,-54.32
133.2981,-52.34
133.3981,-53.57
133.4981,-54.41
133.5981,-53.94
133.6981,-53.57
133.7981,-55.64
133.8981,-54.98
133.9981,-54.22
134.0981,-53.09
134.1981,-53.57
134.2981,-53.85
134.3981,-51.21
134.4981,-51.87
134.5981,-54.6
134.6981,-53.57
134.7981,-53.47
134.8981,-54.13
134.9981,-54.6
135.0981,-54.51
135.1981,-55.26
135.2981,-55.92
135.3981,-55.64
135.4981,-53.85
135.5981,-52.91
135.6981,-53.19
135.7981,-52.53
135.8981,-51.68
135.9981,-52.81
136.0981,-54.13
136.1981,-53.57
136.2981,-53.47
136.3981,-55.07
136.4981,-55.17
136.5981,-54.41
136.6981,-54.13
136.7981,-56.39
136.8981,-55.45
136.9981,-55.07
137.0981,-56.77
137.1981,-55.73
137.2981,-53.0
137.3981,-52.53
137.4981,-53.09
137.5981,-53.0
137.6981,-51.02
137.7981,-51.97
137.8981,-52.25
137.9981,-52.34
138.0981,-54.69
138.1981,-54.6
138.2981,-54.88
138.3981,-54.98
138.4981,-54.98
138.5981,-53.47
138.6981,-53.85
138.7981,-53.94
138.8981,-54.04
138.9981,-53.75
139.0981,-52.81
139.1981,-52.62
139.2981,-52.72
139.3981,-53.28
139.4981,-53.75
139.5981,-55.26
139.6981,-55.17
139.7981,-54.98
139.8981,-53.47
139.9981,-53.85
140.0981,-54.32
140.1981,-54.98
140.2981,-54.88
140.3981,-53.57
140.4981,-53.57
140.5981,-54.41
140.6981,-53.38
140.7981,-52.91
140.8981,-53.28
140.9981,-51.97
141.0981,-51.59
141.1981,-52.44
141.2981,-54.41
141.3981,-54.6
141.4981,-54.13
141.5981,-55.26
141.6981,-55.17
141.7981,-54.88
141.8981,-53.57
141.9981,-53.09
142.0981,-54.6
142.1981,-55.17
142.2981,-54.13
142.3981,-53.09
142.4981,-52.91
142.5981,-52.53
142.6981,-53.85
142.7981,-53.66
142.8981,-55.82
142.9981,-56.01
143.0981,-53.94
143.1981,-54.41
143.2981,-55.45
143.3981,-54.13
143.4981,-54.13
143.5981,-53.94
143.6981,-54.04
143.7981,-53.47
143.8981,-53.85
143.9981,-53.28
144.0981,-52.72
144.1981,-52.81
144.2981,-53.85
144.3981,-54.69
144.4981,-55.45
144.5981,-54.6
144.6981,-54.88
144.7981,-55.64
144.8981,-56.11
144.9981,-55.64
145.0981,-55.54
145.1981,-55.26
145.2981,-52.81
145.3981,-52.15
145.4981,-52.72
145.5981,-52.53
145.6981,-52.62
145.7981,-53.28
145.8981,-52.72
145.9981,-52.34
146.0981,-53.57
146.1981,-55.64
146.2981,-56.77
146.3981,-55.26
146.4981,-54.32
146.5981,-54.6
146.6981,-55.45
146.7981,-54.69
146.8981,-54.51
146.9981,-54.13
147.0981,-53.19
147.1981,-52.81
147.2981,-53.19
147.3981,-53.94
147.4981,-54.41
147.5981,-53.47
147.6981,-51.4
147.7981,-53.19
147.8981,-55.45
147.9981,-55.92
148.0981,-55.64
148.1981,-53.66
148.2981,-53.38
148.3981,-53.57
148.4981,-54.41
148.5981,-55.45
148.6981,-54.04
148.7981,-52.34
148.8981,-53.47
148.9981,-52.44
149.0981,-51.87
149.1981,-51.97
149.2981,-52.15
149.3981,-52.44
149.4981,-54.22
149.5981,-55.45
149.6981,-55.54
149.7981,-55.73
149.8981,-56.01
149.9981,-54.6
150.0981,-55.07
150.1981,-55.35
150.2981,-53.66
150.3981,-52.34
150.4981,-53.0
150.5981,-52.72
150.6981,-53.19
150.7981,-54.88
150.8981,-53.75
150.9981,-54.32
151.0981,-54.41
151.1981,-55.26
151.2981,-56.01
151.3981,-55.45
151.4981,-54.51
151.5981,-52.06
151.6981,-52.53
151.7981,-52.06
151.8981,-52.34
151.9981,-53.57
152.0981,-52.62
152.1981,-52.15
152.2981,-53.38
152.3981,-54.88
152.4981,-53.19
152.5981,-53.85
152.6981,-55.73
152.7981,-55.35
152.8981,-55.54
152.9981,-56.67
153.0981,-55.35
153.1981,-53.09
153.2981,-53.75
153.3981,-53.75
153.4981,-53.38
153.5981,-53.38
153.6981,-53.38
153.7981,-52.15
153.8981,-53.47
153.9981,-53.94
154.0981,-54.04
154.1981,-53.66
154.2981,-53.94
154.3981,-53.09
154.4981,-53.47
154.5981,-54.41
154.6981,-54.88
154.7981,-53.57
154.8981,-53.85
154.9981,-54.69
155.0981,-54.32
155.1981,-53.75
155.2981,-53.09
155.3981,-53.75
155.4981,-53.09
155.5981,-53.38
155.6981,-53.75
155.7981,-54.13
155.8981,-53.47
155.9981,-53.28
156.0981,-53.85
156.1981,-53.19
156.2981,-54.13
156.3981,-54.32
156.4981,-53.0
156.5981,-52.25
156.6981,-53.66
156.7981,-52.81
156.8981,-51.78
156.9981,-52.06
157.0981,-51.68
157.1981,-53.09
157.2981,-51.97
157.3981,-53.0
157.4981,-54.13
157.5981,-53.85
157.6981,-53.94
157.7981,-54.69
157.8981,-54.79
157.9981,-55.17
158.0981,-55.92
158.1981,-55.64
158.2981,-54.79
158.3981,-55.26
158.4981,-54.13
158.5981,-54.69
158.6981,-54.88
158.7981,-53.57
158.8981,-53.47
158.9981,-52.72
159.0981,-53.28
159.1981,-53.75
159.2981,-54.6
159.3981,-56.11
159.4981,-54.98
159.5981,-54.32
159.6981,-54.79
159.7981,-53.57
159.8981,-52.34
159.9981,-51.59
160.0981,-51.31
160.1981,-52.44
160.2981,-53.09
160.3981,-53.0
160.4981,-52.72
160.5981,-53.28
160.6981,-54.13
160.7981,-54.32
160.8981,-54.41
160.9981,-54.69
161.0981,-54.22
161.1981,-53.57
161.2981,-54.69
161.3981,-54.32
161.4981,-54.13
161.5981,-54.79
161.6981,-54.13
161.7981,-53.57
161.8981,-52.34
161.9981,-48.29
162.0981,-42.46
162.1981,-46.04
162.2981,-53.85
162.3981,-54.32
162.4981,-55.26
162.5981,-57.71
162.6981,-55.17
162.7981,-54.69
162.8981,-56.2
162.9981,-54.88
163.0981,-53.66
163.1981,-53.28
163.2981,-52.91
163.3981,-53.0
163.4981,-53.57
163.5981,-51.68
163.6981,-52.72
163.7981,-56.01
163.8981,-56.01
163.9981,-54.13
164.0981,-54.13
164.1981,-54.22
164.2981,-54.13
164.3981,-55.17
164.4981,-54.51
164.5981,-53.0
164.6981,-52.44
164.7981,-51.49
164.8981,-51.49
164.9981,-52.62
165.0981,-52.62
165.1981,-53.19
165.2981,-53.57
165.3981,-54.22
165.4981,-54.41
165.5981,-53.38
165.6981,-53.85
165.7981,-54.69
165.8981,-54.79
165.9981,-54.32
166.0981,-54.6
166.1981,-53.85
166.2981,-53.47
166.3981,-54.22
166.4981,-55.45
166.5981,-55.17
166.6981,-54.32
166.7981,-52.81
166.8981,-53.19
166.9981,-53.47
167.0981,-54.13
167.1981,-55.45
167.2981,-56.2
167.3981,-54.69
167.4981,-54.13
167.5981,-54.88
167.6981,-54.04
167.7981,-53.0
167.8981,-53.28
167.9981,-53.47
168.0981,-52.62
168.1981,-52.62
168.2981,-53.19
168.3981,-53.38
168.4981,-51.97
168.5981,-51.97
168.6981,-52.53
168.7981,-53.85
168.8981,-54.88
168.9981,-54.41
169.0981,-56.11
169.1981,-54.69
169.2981,-54.88
169.3981,-55.45
169.4981,-55.73
169.5981,-54.04
169.6981,-54.32
169.7981,-54.51
169.8981,-55.45
169.9981,-54.88
170.0981,-52.81
170.1981,-53.19
170.2981,-56.11
170.3981,-56.01
170.4981,-56.67
170.5981,-56.29
170.6981,-55.45
170.7981,-54.79
170.8981,-55.45
170.9981,-56.2
171.0981,-55.45
171.1981,-53.57
171.2981,-53.0
171.3981,-53.75
171.4981,-54.22
171.5981,-52.44
171.6981,-51.21
171.7981,-52.44
171.8981,-53.75
171.9981,-54.41
172.0981,-56.11
172.1981,-55.82
172.2981,-56.2
172.3981,-55.73
172.4981,-55.45
172.5981,-53.38
172.6981,-53.38
172.7981,-53.66
172.8981,-53.75
172.9981,-53.47
173.0981,-53.38
173.1981,-54.04
173.2981,-53.66
173.3981,-52.53
173.4981,-53.28
173.5981,-53.09
173.6981,-55.26
173.7981,-56.67
173.8981,-56.11
173.9981,-56.29
174.0981,-55.26
174.1981,-55.54
174.2981,-56.95
174.3981,-54.98
174.4981,-54.79
174.5981,-54.41
174.6981,-54.32
174.7981,-55.07
174.8981,-55.07
174.9981,-53.47
175.0981,-55.17
175.1981,-54.69
175.2981,-56.58
175.3981,-57.8
175.4981,-56.29
175.5981,-54.32
175.6981,-54.04
175.7981,-54.22
175.8981,-53.75
175.9981,-52.34
176.0981,-52.53
176.1981,-53.38
176.2981,-53.66
176.3981,-54.13
176.4981,-53.57
176.5981,-55.07
176.6981,-55.35
176.7981,-55.54
176.8981,-55.64
176.9981,-55.73
177.0981,-56.86
177.1981,-55.82
177.2981,-54.22
177.3981,-54.6
177.4981,-54.51
177.5981,-54.51
177.6981,-55.07
177.7981,-54.13
177.8981,-52.81
177.9981,-54.51
178.0981,-55.26
178.1981,-53.19
178.2981,-52.34
178.3981,-54.04
178.4981,-55.26
178.5981,-55.64
178.6981,-55.92
178.7981,-54.98
178.8981,-55.92
178.9981,-55.45
179.0981,-54.22
179.1981,-54.79
179.2981,-54.79
179.3981,-53.85
179.4981,-54.6
179.5981,-53.94
179.6981,-55.17
179.7981,-56.2
179.8981,-56.01
179.9981,-55.26
180.0981,-54.98
180.1981,-55.54
180.2981,-57.24
180.3981,-57.52
180.4981,-56.58
180.5981,-56.01
180.6981,-54.88
180.7981,-53.0
180.8981,-53.57
180.9981,-53.09
181.0981,-52.53
181.1981,-54.69
181.2981,-54.79
181.3981,-55.82
181.4981,-54.41
181.5981,-54.51
181.6981,-55.45
181.7981,-55.35
181.8981,-56.11
181.9981,-56.86
182.0981,-57.42
182.1981,-56.39
182.2981,-56.2
182.3981,-56.39
182.4981,-54.79
182.5981,-55.64
182.6981,-54.51
182.7981,-56.29
182.8981,-57.99
182.9981,-56.29
183.0981,-55.92
183.1981,-55.92
183.2981,-56.77
183.3981,-56.95
183.4981,-57.14
183.5981,-56.58
183.6981,-57.05
183.7981,-56.58
183.8981,-54.69
183.9981,-54.32
184.0981,-54.32
184.1981,-54.13
184.2981,-53.38
184.3981,-53.38
184.4981,-53.85
184.5981,-53.57
184.6981,-54.22
184.7981,-53.66
184.8981,-53.75
184.9981,-53.57
185.0981,-54.04
185.1981,-55.54
185.2981,-55.07
185.3981,-54.41
185.4981,-55.64
185.5981,-56.48
185.6981,-54.79
185.7981,-54.6
185.8981,-54.51
185.9981,-53.85
186.0981,-53.94
186.1981,-54.98
186.2981,-55.35
186.3981,-55.92
186.4981,-54.98
186.5981,-55.17
186.6981,-56.29
186.7981,-57.14
186.8981,-57.05
186.9981,-56.67
187.0981,-57.89
187.1981,-56.2
187.2981,-56.29
187.3981,-55.73
187.4981,-55.17
187.5981,-55.45
187.6981,-54.51
187.7981,-54.6
187.8981,-54.13
187.9981,-55.35
188.0981,-57.14
188.1981,-56.39
188.2981,-56.67
188.3981,-56.11
188.4981,-56.58
188.5981,-56.29
188.6981,-55.26
188.7981,-53.94
188.8981,-54.6
188.9981,-55.35
189.0981,-54.6
189.1981,-53.19
189.2981,-53.28
189.3981,-54.41
189.4981,-54.22
189.5981,-54.79
189.6981,-54.51
189.7981,-54.79
189.8981,-55.35
189.9981,-55.26
190.0981,-56.48
190.1981,-56.11
190.2981,-55.73
190.3981,-56.86
190.4981,-55.73
190.5981,-56.29
190.6981,-55.45
190.7981,-54.98
190.8981,-54.88
190.9981,-55.07
191.0981,-55.92
191.1981,-55.64
191.2981,-57.05
191.3981,-57.42
191.4981,-58.46
191.5981,-58.46
191.6981,-58.08
191.7981,-56.95
191.8981,-56.01
191.9981,-56.11
192.0981,-54.88
192.1981,-54.69
192.2981,-55.92
192.3981,-55.82
192.4981,-54.88
192.5981,-53.57
192.6981,-52.72
192.7981,-54.04
192.8981,-54.22
192.9981,-54.98
193.0981,-56.01
193.1981,-57.99
193.2981,-57.24
193.3981,-56.29
193.4981,-53.66
193.5981,-55.35
193.6981,-55.17
193.7981,-55.35
193.8981,-56.01
193.9981,-55.26
194.0981,-54.22
194.1981,-54.98
194.2981,-55.54
194.3981,-55.17
194.4981,-55.64
194.5981,-56.29
194.6981,-57.05
194.7981,-56.95
194.8981,-56.11
194.9981,-56.77
195.0981,-57.33
195.1981,-58.27
195.2981,-58.27
195.3981,-56.01
195.4981,-55.45
195.5981,-56.29
195.6981,-56.95
195.7981,-57.24
195.8981,-56.2
195.9981,-55.73
196.0981,-56.11
196.1981,-56.95
196.2981,-57.33
196.3981,-57.71
196.4981,-56.58
196.5981,-56.95
196.6981,-57.52
196.7981,-55.82
196.8981,-56.48
196.9981,-55.73
197.0981,-55.82
197.1981,-56.2
197.2981,-54.69
197.3981,-54.69
197.4981,-53.94
197.5981,-54.98
197.6981,-54.51
197.7981,-55.45
197.8981,-55.07
197.9981,-55.64
198.0981,-56.58
198.1981,-55.17
198.2981,-55.35
198.3981,-55.64
198.4981,-54.41
198.5981,-55.73
198.6981,-57.05
198.7981,-56.2
198.8981,-56.86
198.9981,-55.92
199.0981,-54.79
199.1981,-55.26
199.2981,-56.48
199.3981,-57.05
199.4981,-57.24
199.5981,-56.29
199.6981,-57.61
199.7981,-57.89
199.8981,-58.08
199.9981,-56.48
200.0981,-56.2
200.1981,-55.92
200.2981,-55.73
200.3981,-54.6
200.4981,-54.41
200.5981,-54.6
200.6981,-54.98
200.7981,-55.92
200.8981,-55.92
200.9981,-55.92
201.0981,-55.64
201.1981,-56.77
201.2981,-56.77
201.3981,-55.45
201.4981,-56.39
201.5981,-56.39
201.6981,-56.11
201.7981,-56.11
201.8981,-55.54
201.9981,-55.45
202.0981,-54.98
202.1981,-54.41
202.2981,-54.51
202.3981,-56.58
202.4981,-56.29
202.5981,-55.64
202.6981,-55.92
202.7981,-57.14
202.8981,-57.99
202.9981,-57.8
203.0981,-57.89
203.1981,-57.05
203.2981,-57.42
203.3981,-56.95
203.4981,-54.79
203.5981,-54.69
203.6981,-56.39
203.7981,-56.29
203.8981,-55.35
203.9981,-56.01
204.0981,-57.33
204.1981,-58.27
204.2981,-57.24
204.3981,-58.37
204.4981,-58.74
204.5981,-59.96
204.6981,-58.37
204.7981,-56.39
204.8981,-56.39
204.9981,-56.29
205.0981,-56.95
205.1981,-56.2
205.2981,-55.82
205.3981,-56.11
205.4981,-54.98
205.5981,-54.98
205.6981,-55.45
205.7981,-55.82
205.8981,-55.45
205.9981,-55.92
206.0981,-55.26
206.1981,-56.77
206.2981,-57.05
206.3981,-56.58
206.4981,-55.82
206.5981,-55.82
206.6981,-55.64
206.7981,-55.82
206.8981,-55.26
206.9981,-56.67
207.0981,-56.2
207.1981,-55.73
207.2981,-55.73
207.3981,-55.45
207.4981,-56.48
207.5981,-56.86
207.6981,-58.74
207.7981,-58.93
207.8981,-58.27
207.9981,-57.14
208.0981,-57.89
208.1981,-57.61
208.2981,-57.8
208.3981,-57.99
208.4981,-57.33
208.5981,-55.73
208.6981,-55.73
208.7981,-55.92
208.8981,-56.29
208.9981,-56.39
209.0981,-56.58
209.1981,-56.67
209.2981,-57.89
209.3981,-58.65
209.4981,-56.2
209.5981,-54.88
209.6981,-56.58
209.7981,-56.67
209.8981,-56.11
209.9981,-54.88
210.0981,-54.98
210.1981,-54.51
210.2981,-54.51
210.3981,-56.11
210.4981,-56.67
210.5981,-56.11
210.6981,-56.86
210.7981,-56.95
210.8981,-56.48
210.9981,-56.48
211.0981,-56.95
211.1981,-58.46
211.2981,-58.37
211.3981,-58.65
211.4981,-58.93
211.5981,-57.61
211.6981,-57.24
211.7981,-56.86
211.8981,-57.52
211.9981,-58.08
212.0981,-58.46
212.1981,-57.8
212.2981,-57.24
212.3981,-57.33
212.4981,-57.8
212.5981,-57.42
212.6981,-57.05
212.7981,-58.74
212.8981,-58.27
212.9981,-57.05
213.0981,-56.58
213.1981,-56.01
213.2981,-56.11
213.3981,-56.39
213.4981,-56.29
213.5981,-57.05
213.6981,-57.99
213.7981,-58.18
213.8981,-57.42
213.9981,-57.14
214.0981,-58.46
214.1981,-58.74
214.2981,-57.89
214.3981,-58.27
214.4981,-58.27
214.5981,-56.2
214.6981,-56.2
214.7981,-56.67
214.8981,-55.82
214.9981,-55.35
215.0981,-56.29
215.1981,-55.07
215.2981,-55.54
215.3981,-55.54
215.4981,-56.2
215.5981,-56.58
215.6981,-56.58
215.7981,-57.71
215.8981,-59.68
215.9981,-60.34
216.0981,-58.65
216.1981,-57.71
216.2981,-57.71
216.3981,-57.33
216.4981,-56.77
216.5981,-56.86
216.6981,-56.11
216.7981,-57.33
216.8981,-57.71
216.9981,-57.61
217.0981,-58.65
217.1981,-58.18
217.2981,-58.65
217.3981,-59.02
217.4981,-58.55
217.5981,-57.99
217.6981,-57.33
217.7981,-56.77
217.8981,-56.29
217.9981,-56.86
218.0981,-55.82
218.1981,-55.92
218.2981,-56.29
218.3981,-55.73
218.4981,-55.92
218.5981,-55.64
218.6981,-56.86
218.7981,-56.86
218.8981,-56.39
218.9981,-57.99
219.0981,-58.18
219.1981,-58.55
219.2981,-59.49
219.3981,-58.93
219.4981,-59.02
219.5981,-59.87
219.6981,-58.37
219.7981,-56.77
219.8981,-57.14
219.9981,-57.99
220.0981,-58.08
220.1981,-57.99
220.2981,-58.18
220.3981,-58.65
220.4981,-58.84
220.5981,-59.49
220.6981,-57.8
220.7981,-58.27
220.8981,-57.89
220.9981,-60.25
221.0981,-58.46
221.1981,-58.18
221.2981,-57.8
221.3981,-56.86
221.4981,-57.61
221.5981,-57.05
221.6981,-58.18
221.7981,-57.33
221.8981,-57.42
221.9981,-57.8
222.0981,-58.46
222.1981,-59.49
222.2981,-59.59
222.3981,-58.65
222.4981,-57.8
222.5981,-57.71
222.6981,-57.99
222.7981,-57.71
222.8981,-57.05
222.9981,-56.58
223.0981,-57.89
223.1981,-57.99
223.2981,-56.77
223.3981,-59.02
223.4981,-57.89
223.5981,-56.67
223.6981,-57.05
223.7981,-58.18
223.8981,-58.84
223.9981,-57.61
224.0981,-56.77
224.1981,-57.05
224.2981,-57.52
224.3981,-57.71
224.4981,-57.8
224.5981,-58.37
224.6981,-57.99
224.7981,-57.24
224.8981,-56.77
224.9981,-58.18
225.0981,-59.21
225.1981,-58.55
225.2981,-58.08
225.3981,-57.8
225.4981,-57.05
225.5981,-56.01
225.6981,-56.58
225.7981,-56.58
225.8981,-57.24
225.9981,-57.71
226.0981,-57.71
226.1981,-57.24
226.2981,-57.8
226.3981,-58.27
226.4981,-56.95
226.5981,-56.29
226.6981,-57.14
226.7981,-56.58
226.8981,-57.24
226.9981,-57.99
227.0981,-56.39
227.1981,-57.71
227.2981,-57.71
227.3981,-57.89
227.4981,-57.42
227.5981,-55.92
227.6981,-56.77
227.7981,-58.27
227.8981,-57.05
227.9981,-57.89
228.0981,-57.14
228.1981,-57.52
228.2981,-57.8
228.3981,-57.71
228.4981,-58.18
228.5981,-59.4
228.6981,-59.12
228.7981,-59.49
228.8981,-58.08
228.9981,-57.61
229.0981,-56.77
229.1981,-57.99
229.2981,-57.33
229.3981,-57.42
229.4981,-57.8
229.5981,-56.11
229.6981,-57.33
229.7981,-58.27
229.8981,-57.24
229.9981,-57.33
230.0981,-58.37
230.1981,-58.18
230.2981,-57.14
230.3981,-56.95
230.4981,-57.71
230.5981,-58.46
230.6981,-59.12
230.7981,-58.08
230.8981,-57.61
230.9981,-56.48
231.0981,-57.99
231.1981,-58.37
231.2981,-57.42
231.3981,-57.61
231.4981,-57.42
231.5981,-57.99
231.6981,-59.21
231.7981,-57.89
231.8981,-58.93
231.9981,-60.15
232.0981,-58.93
232.1981,-58.18
232.2981,-57.99
232.3981,-58.27
232.4981,-56.86
232.5981,-56.77
232.6981,-57.42
232.7981,-57.42
232.8981,-56.48
232.9981,-57.42
233.0981,-57.61
233.1981,-56.86
233.2981,-57.42
233.3981,-58.18
233.4981,-58.27
233.5981,-58.46
233.6981,-56.77
233.7981,-57.33
233.8981,-56.95
233.9981,-55.82
234.0981,-56.58
234.1981,-57.71
234.2981,-56.29
234.3981,-57.05
234.4981,-57.52
234.5981,-57.24
234.6981,-56.86
234.7981,-57.61
234.8981,-57.89
234.9981,-58.55
235.0981,-59.59
235.1981,-59.31
235.2981,-57.71
235.3981,-56.86
235.4981,-56.58
235.5981,-56.86
235.6981,-58.37
235.7981,-58.46
235.8981,-58.74
235.9981,-56.58
236.0981,-55.73
236.1981,-57.61
236.2981,-59.12
236.3981,-59.21
236.4981,-59.02
236.5981,-56.86
236.6981,-57.24
236.7981,-59.31
236.8981,-59.87
236.9981,-58.65
237.0981,-58.55
237.1981,-57.05
237.2981,-57.33
237.3981,-57.24
237.4981,-57.05
237.5981,-58.18
237.6981,-57.8
237.7981,-58.84
237.8981,-58.55
237.9981,-58.93
238.0981,-59.68
238.1981,-58.46
238.2981,-58.27
238.3981,-58.46
238.4981,-57.99
238.5981,-58.65
238.6981,-56.77
238.7981,-56.95
238.8981,-57.24
238.9981,-58.55
239.0981,-57.05
239.1981,-56.01
239.2981,-57.05
239.3981,-56.77
239.4981,-57.24
239.5981,-57.61
239.6981,-57.8
239.7981,-57.05
239.8981,-57.52
239.9981,-58.46
240.0981,-57.71
240.1981,-57.33
240.2981,-58.46
240.3981,-57.61
240.4981,-57.52
240.5981,-57.33
240.6981,-57.05
240.7981,-57.05
240.8981,-58.18
240.9981,-58.46
241.0981,-57.24
241.1981,-56.2
241.2981,-57.05
241.3981,-58.55
241.4981,-57.71
241.5981,-56.95
241.6981,-57.33
241.7981,-57.05
241.8981,-58.46
241.9981,-57.8
242.0981,-57.33
242.1981,-56.01
242.2981,-56.11
242.3981,-56.86
242.4981,-57.99
242.5981,-57.99
242.6981,-58.18
242.7981,-58.08
242.8981,-57.24
242.9981,-57.71
243.0981,-58.55
243.1981,-57.8
243.2981,-57.89
243.3981,-58.18
243.4981,-58.46
243.5981,-59.4
243.6981,-57.89
243.7981,-57.42
243.8981,-57.14
243.9981,-56.48
244.0981,-56.77
244.1981,-57.52
244.2981,-57.42
244.3981,-56.39
244.4981,-57.52
244.5981,-60.25
244.6981,-58.37
244.7981,-57.33
244.8981,-57.8
244.9981,-58.27
245.0981,-58.37
245.1981,-56.58
245.2981,-57.71
245.3981,-58.18
245.4981,-56.58
245.5981,-56.95
245.6981,-57.05
245.7981,-58.18
245.8981,-58.27
245.9981,-57.99
246.0981,-57.14
246.1981,-56.67
246.2981,-57.14
246.3981,-58.55
246.4981,-59.12
246.5981,-58.08
246.6981,-57.33
246.7981,-57.05
246.8981,-57.14
246.9981,-56.95
247.0981,-58.08
247.1981,-57.14
247.2981,-57.8
247.3981,-57.99
247.4981,-57.71
247.5981,-56.77
247.6981,-58.46
247.7981,-57.61
247.8981,-57.42
247.9981,-58.74
248.0981,-59.12
248.1981,-57.61
248.2981,-58.37
248.3981,-58.55
248.4981,-57.99
248.5981,-56.67
248.6981,-56.48
248.7981,-58.55
248.8981,-58.74
248.9981,-57.61
249.0981,-57.33
249.1981,-57.99
249.2981,-57.8
249.3981,-58.08
249.4981,-58.93
249.5981,-57.8
249.6981,-57.71
249.7981,-56.86
249.8981,-55.07
249.9981,-55.35
250.0981,-57.24
250.1981,-57.05
250.2981,-57.42
250.3981,-57.05
250.4981,-58.27
250.5981,-57.42
250.6981,-57.89
250.7981,-58.55
250.8981,-58.08
250.9981,-57.89
251.0981,-56.95
251.1981,-57.33
251.2981,-57.61
251.3981,-56.95
251.4981,-56.39
251.5981,-57.14
251.6981,-55.92
251.7981,-55.73
251.8981,-56.11
251.9981,-55.64
252.0981,-57.14
252.1981,-56.95
252.2981,-56.39
252.3981,-57.61
252.4981,-57.71
252.5981,-58.65
252.6981,-58.27
252.7981,-56.58
252.8981,-57.14
252.9981,-57.71
253.0981,-57.33
253.1981,-55.82
253.2981,-55.35
253.3981,-56.2
253.4981,-56.77
253.5981,-55.92
253.6981,-56.58
253.7981,-57.33
253.8981,-59.02
253.9981,-58.55
254.0981,-57.33
254.1981,-56.95
254.2981,-56.58
254.3981,-56.39
254.4981,-56.58
254.5981,-56.11
254.6981,-55.64
254.7981,-57.14
254.8981,-56.11
254.9981,-57.05
255.0981,-57.05
255.1981,-56.77
255.2981,-56.86
255.3981,-57.05
255.4981,-57.61
255.5981,-58.46
255.6981,-58.46
255.7981,-56.95
255.8981,-56.95
255.9981,-57.89
256.0981,-57.71
256.1981,-57.61
256.2981,-57.33
256.3981,-57.05
256.4981,-57.05
256.5981,-56.77
256.6981,-56.86
256.7981,-56.67
256.8981,-57.05
256.9981,-58.55
257.0981,-57.33
257.1981,-56.58
257.2981,-58.55
257.3981,-58.27
257.4981,-56.86
257.5981,-55.54
257.6981,-55.26
257.7981,-56.67
257.8981,-57.99
257.9981,-56.67
258.0981,-56.39
258.1981,-57.05
258.2981,-56.11
258.3981,-56.2
258.4981,-56.2
258.5981,-57.05
258.6981,-59.87
258.7981,-59.02
258.8981,-57.61
258.9981,-57.61
259.0981,-57.14
259.1981,-57.52
259.2981,-58.46
259.3981,-57.61
259.4981,-57.33
259.5981,-57.05
259.6981,-57.33
259.7981,-56.95
259.8981,-56.39
259.9981,-55.07
260.0981,-55.92
260.1981,-57.33
260.2981,-57.61
260.3981,-57.33
260.4981,-56.86
260.5981,-56.39
260.6981,-55.35
260.7981,-54.88
260.8981,-54.79
260.9981,-56.01
261.0981,-56.77
261.1981,-55.64
261.2981,-57.42
261.3981,-57.33
261.4981,-56.11
261.5981,-57.61
261.6981,-57.71
261.7981,-58.08
261.8981,-56.86
261.9981,-56.67
262.0981,-57.05
262.1981,-57.52
262.2981,-56.95
262.3981,-56.67
262.4981,-56.77
262.5981,-57.8
262.6981,-56.58
262.7981,-56.58
262.8981,-56.48
262.9981,-55.45
263.0981,-55.92
263.1981,-56.39
263.2981,-55.45
263.3981,-56.86
263.4981,-59.59
263.5981,-58.08
263.6981,-57.71
263.7981,-56.95
263.8981,-57.14
263.9981,-57.24
264.0981,-56.86
264.1981,-57.71
264.2981,-57.14
264.3981,-56.77
264.4981,-56.48
264.5981,-56.95
264.6981,-57.71
264.7981,-56.86
264.8981,-56.67
264.9981,-56.77
265.0981,-57.05
265.1981,-57.33
265.2981,-57.52
265.3981,-57.52
265.4981,-55.82
265.5981,-56.39
265.6981,-57.89
265.7981,-56.86
265.8981,-55.45
265.9981,-55.92
266.0981,-56.77
266.1981,-55.82
266.2981,-55.54
266.3981,-54.13
266.4981,-55.73
266.5981,-56.2
266.6981,-57.24
266.7981,-58.27
266.8981,-57.05
266.9981,-57.14
267.0981,-57.61
267.1981,-57.8
267.2981,-57.61
267.3981,-57.42
267.4981,-56.01
267.5981,-56.29
267.6981,-57.42
267.7981,-57.24
267.8981,-56.67
267.9981,-55.45
268.0981,-55.45
268.1981,-56.11
268.2981,-57.61
268.3981,-57.71
268.4981,-57.52
268.5981,-55.92
268.6981,-54.88
268.7981,-54.98
268.8981,-55.73
268.9981,-55.92
269.0981,-56.67
269.1981,-57.24
269.2981,-58.08
269.3981,-56.2
269.4981,-55.07
269.5981,-54.69
269.6981,-55.73
269.7981,-56.01
269.8981,-55.73
269.9981,-56.67
270.0981,-57.33
270.1981,-58.27
270.2981,-57.42
270.3981,-57.8
270.4981,-57.99
270.5981,-56.2
270.6981,-56.39
270.7981,-57.05
270.8981,-56.67
270.9981,-57.33
271.0981,-57.14
271.1981,-57.52
271.2981,-56.11
271.3981,-56.11
271.4981,-56.11
271.5981,-56.39
271.6981,-57.52
271.7981,-58.65
271.8981,-57.24
271.9981,-57.89
272.0981,-56.77
272.1981,-56.29
272.2981,-55.26
272.3981,-54.69
272.4981,-55.92
272.5981,-56.2
272.6981,-57.05
272.7981,-56.11
272.8981,-55.64
272.9981,-56.11
273.0981,-55.54
273.1981,-56.77
273.2981,-58.46
273.3981,-57.71
273.4981,-57.14
273.5981,-56.58
273.6981,-56.39
273.7981,-56.67
273.8981,-55.82
273.9981,-56.39
274.0981,-55.54
274.1981,-54.13
274.2981,-55.45
274.3981,-56.2
274.4981,-56.11
274.5981,-55.92
274.6981,-56.2
274.7981,-57.42
274.8981,-58.46
274.9981,-59.21
275.0981,-58.93
275.1981,-57.89
275.2981,-56.39
275.3981,-57.14
275.4981,-58.46
275.5981,-56.67
275.6981,-56.77
275.7981,-55.54
275.8981,-56.77
275.9981,-57.89
276.0981,-57.89
276.1981,-56.48
276.2981,-56.67
276.3981,-57.05
276.4981,-56.29
276.5981,-57.05
276.6981,-56.77
276.7981,-57.14
276.8981,-56.86
276.9981,-56.01
277.0981,-54.32
277.1981,-55.07
277.2981,-55.73
277.3981,-56.86
277.4981,-56.2
277.5981,-54.6
277.6981,-54.6
277.7981,-54.98
277.8981,-56.01
277.9981,-57.24
278.0981,-57.33
278.1981,-57.33
278.2981,-56.11
278.3981,-56.29
278.4981,-56.86
278.5981,-56.39
278.6981,-56.39
278.7981,-56.86
278.8981,-57.24
278.9981,-56.67
279.0981,-56.48
279.1981,-56.77
279.2981,-56.29
279.3981,-56.11
279.4981,-56.29
279.5981,-57.61
279.6981,-59.49
279.7981,-57.71
279.8981,-56.11
279.9981,-58.37
280.0981,-56.58
280.1981,-56.01
280.2981,-55.35
280.3981,-56.2
280.4981,-56.11
280.5981,-55.35
280.6981,-54.41
280.7981,-54.88
280.8981,-55.92
280.9981,-55.07
281.0981,-55.45
281.1981,-57.61
281.2981,-57.42
281.3981,-56.58
281.4981,-56.95
281.5981,-56.01
281.6981,-56.77
281.7981,-57.61
281.8981,-57.42
281.9981,-56.11
282.0981,-55.54
282.1981,-54.69
282.2981,-55.64
282.3981,-56.11
282.4981,-55.45
282.5981,-55.45
282.6981,-56.39
282.7981,-56.95
282.8981,-57.05
282.9981,-57.24
283.0981,-57.05
283.1981,-57.05
283.2981,-56.58
283.3981,-56.77
283.4981,-56.77
283.5981,-56.2
283.6981,-56.01
283.7981,-56.39
283.8981,-57.52
283.9981,-57.05
284.0981,-56.11
284.1981,-56.95
284.2981,-57.61
284.3981,-56.39
284.4981,-56.29
284.5981,-56.29
284.6981,-56.48
284.7981,-57.52
284.8981,-56.77
284.9981,-56.39
285.0981,-56.2
285.1981,-55.26
285.2981,-55.92
285.3981,-56.11
285.4981,-56.2
285.5981,-55.64
285.6981,-54.88
285.7981,-54.79
285.8981,-54.88
285.9981,-55.92
286.0981,-56.01
286.1981,-56.11
286.2981,-57.24
286.3981,-57.61
286.4981,-57.05
286.5981,-57.14
286.6981,-57.33
286.7981,-56.95
286.8981,-56.29
286.9981,-57.24
287.0981,-57.52
287.1981,-55.73
287.2981,-56.2
287.3981,-57.24
287.4981,-56.11
287.5981,-57.24
287.6981,-58.18
287.7981,-58.08
287.8981,-57.89
287.9981,-57.05
288.0981,-55.17
288.1981,-55.82
288.2981,-55.26
288.3981,-54.41
288.4981,-54.32
288.5981,-54.41
288.6981,-55.73
288.7981,-55.26
288.8981,-54.41
288.9981,-54.22
289.0981,-55.73
289.1981,-55.82
289.2981,-55.54
289.3981,-56.2
289.4981,-56.48
289.5981,-56.39
289.6981,-57.24
289.7981,-57.24
289.8981,-55.45
289.9981,-56.11
290.0981,-56.01
290.1981,-55.07
290.2981,-54.79
290.3981,-55.64
290.4981,-55.92
290.5981,-54.69
290.6981,-54.22
290.7981,-56.77
290.8981,-56.48
290.9981,-55.54
291.0981,-55.17
291.1981,-57.52
291.2981,-57.33
291.3981,-56.01
291.4981,-57.24
291.5981,-56.2
291.6981,-55.35
291.7981,-55.54
291.8981,-55.17
291.9981,-56.11
292.0981,-54.98
292.1981,-56.58
292.2981,-57.14
292.3981,-57.14
292.4981,-56.48
292.5981,-57.14
292.6981,-56.58
292.7981,-57.14
292.8981,-56.29
292.9981,-57.05
293.0981,-55.45
293.1981,-55.92
293.2981,-56.39
293.3981,-56.11
293.4981,-55.54
293.5981,-54.41
293.6981,-54.79
293.7981,-55.92
293.8981,-54.79
293.9981,-54.98
294.0981,-54.79
294.1981,-55.82
294.2981,-57.61
294.3981,-56.29
294.4981,-54.32
294.5981,-55.54
294.6981,-56.86
294.7981,-57.61
294.8981,-56.29
294.9981,-57.52
295.0981,-57.71
295.1981,-56.48
295.2981,-56.01
295.3981,-56.77
295.4981,-57.24
295.5981,-55.73
295.6981,-56.29
295.7981,-56.48
295.8981,-57.14
295.9981,-56.48
296.0981,-55.73
296.1981,-54.32
296.2981,-55.26
296.3981,-55.64
296.4981,-55.35
296.5981,-55.35
296.6981,-54.6
296.7981,-55.82
296.8981,-55.07
296.9981,-54.51
297.0981,-53.38
297.1981,-54.22
297.2981,-54.22
297.3981,-55.07
297.4981,-56.11
297.5981,-56.58
297.6981,-56.95
297.7981,-56.58
297.8981,-55.45
297.9981,-55.26
298.0981,-55.45
298.1981,-56.29
298.2981,-55.45
298.3981,-56.01
298.4981,-56.29
298.5981,-55.82
298.6981,-54.22
298.7981,-55.26
298.8981,-57.42
298.9981,-57.8
299.8981,-82.27
299.9981,-56.39
300.0981,-56.01
300.1981,-57.05
300.2981,-56.58
300.3981,-56.01
300.4981,-56.29
300.5981,-57.61
300.6981,-57.05
300.7981,-56.01
300.8981,-55.82
300.9981,-56.77
301.0981,-55.17
301.1981,-54.79
301.2981,-55.92
301.3981,-55.45
301.4981,-55.64
301.5981,-56.58
301.6981,-58.37
301.7981,-56.67
301.8981,-56.67
301.9981,-56.67
302.0981,-54.6
302.1981,-55.35
302.2981,-55.26
302.3981,-54.69
302.4981,-55.07
302.5981,-55.26
302.6981,-54.88
302.7981,-54.04
302.8981,-53.47
302.9981,-53.47
303.0981,-54.98
303.1981,-54.13
303.2981,-55.45
303.3981,-55.92
303.4981,-54.41
303.5981,-54.51
303.6981,-55.17
303.7981,-56.11
303.8981,-56.01
303.9981,-56.29
304.0981,-56.2
304.1981,-57.05
304.2981,-56.48
304.3981,-56.11
304.4981,-56.95
304.5981,-57.52
304.6981,-57.42
304.7981,-57.24
304.8981,-56.48
304.9981,-56.95
305.0981,-57.33
305.1981,-57.52
305.2981,-57.71
305.3981,-57.33
305.4981,-55.82
305.5981,-54.41
305.6981,-54.51
305.7981,-54.79
305.8981,-55.64
305.9981,-54.51
306.0981,-55.07
306.1981,-55.07
306.2981,-54.51
306.3981,-55.54
306.4981,-54.41
306.5981,-54.51
306.6981,-54.22
306.7981,-54.79
306.8981,-55.92
306.9981,-55.54
307.0981,-55.82
307.1981,-55.17
307.2981,-54.04
307.3981,-54.88
307.4981,-56.48
307.5981,-55.64
307.6981,-55.35
307.7981,-55.26
307.8981,-54.98
307.9981,-54.98
308.0981,-54.22
308.1981,-54.69
308.2981,-55.17
308.3981,-55.54
308.4981,-55.26
308.5981,-56.67
308.6981,-57.05
308.7981,-55.54
308.8981,-55.54
308.9981,-55.73
309.0981,-54.6
309.1981,-53.75
309.2981,-54.6
309.3981,-55.64
309.4981,-55.64
309.5981,-54.98
309.6981,-56.67
309.7981,-56.2
309.8981,-56.86
309.9981,-57.24
310.0981,-57.05
310.1981,-57.33
310.2981,-56.29
310.3981,-54.6
310.4981,-54.41
310.5981,-53.19
310.6981,-53.75
310.7981,-55.54
310.8981,-55.35
310.9981,-54.13
311.0981,-53.85
311.1981,-53.57
311.2981,-54.79
311.3981,-54.41
311.4981,-54.04
311.5981,-53.75
311.6981,-54.41
311.7981,-54.98
311.8981,-56.67
311.9981,-55.17
312.0981,-54.32
312.1981,-54.32
312.2981,-55.54
312.3981,-54.79
312.4981,-54.32
312.5981,-54.41
312.6981,-55.35
312.7981,-56.2
312.8981,-55.82
312.9981,-56.86
313.0981,-57.14
313.1981,-55.17
313.2981,-54.79
313.3981,-55.45
313.4981,-55.26
313.5981,-56.39
313.6981,-56.01
313.7981,-55.82
313.8981,-55.26
313.9981,-55.82
314.0981,-55.45
314.1981,-55.07
314.2981,-54.98
314.3981,-54.6
314.4981,-54.41
314.5981,-55.82
314.6981,-57.24
314.7981,-56.2
314.8981,-55.73
314.9981,-56.67
315.0981,-56.39
315.1981,-55.17
315.2981,-56.2
315.3981,-56.48
315.4981,-56.2
315.5981,-55.82
315.6981,-56.2
315.7981,-55.82
315.8981,-55.54
315.9981,-54.13
316.0981,-53.94
316.1981,-54.98
316.2981,-55.17
316.3981,-55.26
316.4981,-55.45
316.5981,-55.73
316.6981,-54.69
316.7981,-54.41
316.8981,-53.57
316.9981,-53.66
317.0981,-54.13
317.1981,-54.04
317.2981,-54.22
317.3981,-54.6
317.4981,-54.79
317.5981,-56.11
317.6981,-55.73
317.7981,-56.2
317.8981,-57.89
317.9981,-56.67
318.0981,-56.77
318.1981,-55.73
318.2981,-55.92
318.3981,-56.01
318.4981,-55.07
318.5981,-56.11
318.6981,-55.17
318.7981,-54.6
318.8981,-53.09
318.9981,-52.72
319.0981,-53.66
319.1981,-53.47
319.2981,-55.26
319.3981,-54.32
319.4981,-54.88
319.5981,-56.2
319.6981,-55.82
319.7981,-55.07
319.8981,-55.07
319.9981,-55.35
320.0981,-54.98
320.1981,-56.01
320.2981,-55.45
320.3981,-54.98
320.4981,-54.32
320.5981,-54.04
320.6981,-54.79
320.7981,-57.24
320.8981,-56.11
320.9981,-55.35
321.0981,-55.82
321.1981,-56.58
321.2981,-56.48
321.3981,-56.2
321.4981,-54.88
321.5981,-54.79
321.6981,-55.45
321.7981,-54.51
321.8981,-53.47
321.9981,-54.22
322.0981,-56.29
322.1981,-54.51
322.2981,-54.32
322.3981,-54.98
322.4981,-55.82
322.5981,-54.51
322.6981,-55.64
322.7981,-55.92
322.8981,-54.51
322.9981,-54.41
323.0981,-56.11
323.1981,-56.48
323.2981,-54.41
323.3981,-54.88
323.4981,-55.73
323.5981,-55.35
323.6981,-54.88
323.7981,-54.88
323.8981,-53.85
323.9981,-55.35
324.0981,-54.88
324.1981,-56.39
324.2981,-55.26
324.3981,-55.17
324.4981,-54.32
324.5981,-55.45
324.6981,-55.64
324.7981,-56.29
324.8981,-56.39
324.9981,-54.79
325.0981,-54.22
325.1981,-54.32
325.2981,-53.09
325.3981,-53.75
325.4981,-55.54
325.5981,-54.88
325.6981,-54.6
325.7981,-54.88
325.8981,-56.11
325.9981,-56.39
326.0981,-55.07
326.1981,-55.64
326.2981,-56.01
326.3981,-55.35
326.4981,-56.11
326.5981,-56.95
326.6981,-57.24
326.7981,-57.24
326.8981,-55.45
326.9981,-54.41
327.0981,-54.32
327.1981,-53.75
327.2981,-55.26
327.3981,-55.26
327.4981,-54.51
327.5981,-55.17
327.6981,-56.11
327.7981,-56.11
327.8981,-55.17
327.9981,-55.26
328.0981,-54.69
328.1981,-54.32
328.2981,-53.0
328.3981,-53.57
328.4981,-54.41
328.5981,-54.69
328.6981,-54.6
328.7981,-55.64
328.8981,-55.45
328.9981,-54.6
329.0981,-55.45
329.1981,-55.26
329.2981,-54.88
329.3981,-54.98
329.4981,-55.82
329.5981,-55.07
329.6981,-54.79
329.7981,-54.51
329.8981,-55.35
329.9981,-55.92
330.0981,-55.17
330.1981,-55.54
330.2981,-54.04
330.3981,-53.85
330.4981,-54.32
330.5981,-54.98
330.6981,-54.79
330.7981,-55.54
330.8981,-55.35
330.9981,-54.98
331.0981,-56.11
331.1981,-55.64
331.2981,-55.64
331.3981,-54.41
331.4981,-53.66
331.5981,-54.69
331.6981,-54.41
331.7981,-54.13
331.8981,-54.22
331.9981,-54.69
332.0981,-56.39
332.1981,-55.64
332.2981,-54.51
332.3981,-55.07
332.4981,-55.26
332.5981,-54.69
332.6981,-54.51
332.7981,-55.64
332.8981,-55.64
332.9981,-56.2
333.0981,-54.51
333.1981,-53.47
333.2981,-53.57
333.3981,-54.13
333.4981,-54.69
333.5981,-55.17
333.6981,-55.07
333.7981,-54.98
333.8981,-55.07
333.9981,-54.98
334.0981,-55.26
334.1981,-56.48
334.2981,-58.08
334.3981,-56.11
334.4981,-56.39
334.5981,-56.11
334.6981,-57.14
334.7981,-55.45
334.8981,-53.94
334.9981,-53.66
335.0981,-54.88
335.1981,-55.73
335.2981,-54.98
335.3981,-55.35
335.4981,-53.94
335.5981,-54.79
335.6981,-56.2
335.7981,-55.26
335.8981,-54.22
335.9981,-54.32
336.0981,-55.17
336.1981,-55.26
336.2981,-54.32
336.3981,-55.07
336.4981,-54.04
336.5981,-53.75
336.6981,-53.47
336.7981,-55.17
336.8981,-56.2
336.9981,-55.26
337.0981,-54.98
337.1981,-55.45
337.2981,-55.26
337.3981,-56.11
337.4981,-56.67
337.5981,-56.39
337.6981,-57.05
337.7981,-55.07
337.8981,-53.57
337.9981,-55.26
338.0981,-56.48
338.1981,-55.45
338.2981,-54.6
338.3981,-54.51
338.4981,-53.85
338.5981,-54.88
338.6981,-55.17
338.7981,-54.22
338.8981,-55.35
338.9981,-56.2
339.0981,-55.26
339.1981,-55.26
339.2981,-55.82
339.3981,-56.48
339.4981,-57.61
339.5981,-56.2
339.6981,-54.41
339.7981,-53.09
339.8981,-52.06
339.9981,-53.28
340.0981,-57.24
340.1981,-56.01
340.2981,-55.82
340.3981,-56.67
340.4981,-56.11
340.5981,-55.92
340.6981,-55.64
340.7981,-57.61
340.8981,-56.77
340.9981,-55.26
341.0981,-54.13
341.1981,-54.41
341.2981,-54.69
341.3981,-53.38
341.4981,-52.81
341.5981,-52.91
341.6981,-53.94
341.7981,-56.01
341.8981,-55.92
341.9981,-54.41
342.0981,-54.6
342.1981,-55.17
342.2981,-54.79
342.3981,-55.73
342.4981,-56.39
342.5981,-56.01
342.6981,-56.48
342.7981,-56.29
342.8981,-55.17
342.9981,-55.92
343.0981,-55.64
343.1981,-55.07
343.2981,-55.82
343.3981,-55.64
343.4981,-55.17
343.5981,-56.77
343.6981,-56.86
343.7981,-55.92
343.8981,-56.48
343.9981,-56.29
344.0981,-55.26
344.1981,-55.45
344.2981,-55.07
344.3981,-54.88
344.4981,-54.13
344.5981,-54.22
344.6981,-54.69
344.7981,-54.13
344.8981,-54.13
344.9981,-54.69
345.0981,-55.17
345.1981,-57.05
345.2981,-58.08
345.3981,-56.58
345.4981,-55.92
345.5981,-57.14
345.6981,-56.2
345.7981,-56.29
345.8981,-56.01
345.9981,-54.98
346.0981,-54.04
346.1981,-55.73
346.2981,-55.82
346.3981,-54.51
346.4981,-55.07
346.5981,-55.45
346.6981,-55.35
346.7981,-55.92
346.8981,-55.82
346.9981,-55.26
347.0981,-55.82
347.1981,-55.17
347.2981,-54.98
347.3981,-54.32
347.4981,-54.13
347.5981,-53.66
347.6981,-53.85
347.7981,-55.26
347.8981,-54.41
347.9981,-54.69
348.0981,-54.41
348.1981,-54.13
348.2981,-54.88
348.3981,-56.29
348.4981,-56.48
348.5981,-55.17
348.6981,-55.17
348.7981,-55.92
348.8981,-55.54
348.9981,-56.67
349.0981,-56.11
349.1981,-56.58
349.2981,-56.01
349.3981,-54.04
349.4981,-53.94
349.5981,-55.64
349.6981,-55.82
349.7981,-54.6
349.8981,-54.79
349.9981,-54.69
350.0981,-54.13
350.1981,-54.88
350.2981,-54.88
350.3981,-55.07
350.4981,-56.01
350.5981,-56.29
350.6981,-56.29
350.7981,-56.39
350.8981,-56.11
350.9981,-54.98
351.0981,-54.41
351.1981,-55.54
351.2981,-55.45
351.3981,-54.32
351.4981,-54.98
351.5981,-55.07
351.6981,-56.48
351.7981,-56.86
351.8981,-56.2
351.9981,-57.24
352.0981,-56.77
352.1981,-56.39
352.2981,-55.26
352.3981,-53.94
352.4981,-54.88
352.5981,-53.85
352.6981,-53.85
352.7981,-54.32
352.8981,-53.85
352.9981,-54.98
353.0981,-55.82
353.1981,-54.88
353.2981,-55.92
353.3981,-56.67
353.4981,-57.24
353.5981,-58.65
353.6981,-56.29
353.7981,-55.82
353.8981,-56.01
353.9981,-56.58
354.0981,-55.07
354.1981,-53.19
354.2981,-54.32
354.3981,-54.22
354.4981,-55.64
354.5981,-56.67
354.6981,-56.95
354.7981,-56.29
354.8981,-56.01
354.9981,-55.82
355.0981,-55.17
355.1981,-55.82
355.2981,-55.17
355.3981,-55.45
355.4981,-54.88
355.5981,-53.28
355.6981,-53.66
355.7981,-53.09
355.8981,-51.68
355.9981,-53.0
356.0981,-54.6
356.1981,-54.88
356.2981,-54.79
356.3981,-55.45
356.4981,-56.11
356.5981,-57.99
356.6981,-57.05
356.7981,-58.27
356.8981,-56.77
356.9981,-56.95
357.0981,-57.24
357.1981,-56.29
357.2981,-56.48
357.3981,-57.33
357.4981,-55.64
357.5981,-55.54
357.6981,-55.07
357.7981,-54.98
357.8981,-56.01
357.9981,-54.04
358.0981,-54.88
358.1981,-55.45
358.2981,-54.69
358.3981,-53.66
358.4981,-55.17
358.5981,-55.54
358.6981,-54.51
358.7981,-54.22
358.8981,-54.13
358.9981,-55.35
359.0981,-55.82
359.1981,-55.26
359.2981,-55.64
359.3981,-55.73
359.4981,-53.19
359.5981,-53.94
359.6981,-55.35
359.7981,-56.01
359.8981,-56.39
359.9981,-55.26
360.0981,-56.86
360.1981,-56.58
360.2981,-55.17
360.3981,-54.51
360.4981,-55.35
360.5981,-55.45
360.6981,-53.75
360.7981,-53.09
360.8981,-53.94
360.9981,-54.79
361.0981,-54.69
361.1981,-54.04
361.2981,-55.26
361.3981,-55.54
361.4981,-55.45
361.5981,-56.01
361.6981,-56.95
361.7981,-57.24
361.8981,-56.95
361.9981,-57.33
362.0981,-56.77
362.1981,-56.67
362.2981,-54.98
362.3981,-55.07
362.4981,-54.88
362.5981,-55.35
362.6981,-55.45
362.7981,-55.92
362.8981,-55.35
362.9981,-56.11
363.0981,-56.01
363.1981,-56.67
363.2981,-55.82
363.3981,-54.88
363.4981,-54.51
363.5981,-54.22
363.6981,-54.22
363.7981,-54.41
363.8981,-54.51
363.9981,-53.94
364.0981,-54.6
364.1981,-54.79
364.2981,-53.09
364.3981,-54.69
364.4981,-55.82
364.5981,-54.41
364.6981,-55.45
364.7981,-55.35
364.8981,-54.69
364.9981,-56.48
365.0981,-56.01
365.1981,-56.39
365.2981,-56.58
365.3981,-56.29
365.4981,-55.35
365.5981,-54.79
365.6981,-54.88
365.7981,-55.45
365.8981,-56.48
365.9981,-55.64
366.0981,-54.6
366.1981,-54.79
366.2981,-54.79
366.3981,-55.26
366.4981,-54.13
366.5981,-54.69
366.6981,-55.35
366.7981,-55.07
366.8981,-54.79
366.9981,-54.04
367.0981,-53.75
367.1981,-53.66
367.2981,-53.85
367.3981,-55.45
367.4981,-55.35
367.5981,-55.92
367.6981,-55.73
367.7981,-56.11
367.8981,-56.2
367.9981,-56.11
368.0981,-55.73
368.1981,-55.35
368.2981,-56.58
368.3981,-55.73
368.4981,-55.17
368.5981,-56.67
368.6981,-55.92
368.7981,-55.07
368.8981,-54.41
368.9981,-54.51
369.0981,-54.79
369.1981,-55.92
369.2981,-57.14
369.3981,-57.24
369.4981,-56.67
369.5981,-56.29
369.6981,-57.24
369.7981,-56.2
369.8981,-55.92
369.9981,-56.01
370.0981,-56.67
370.1981,-56.67
370.2981,-56.95
370.3981,-56.77
370.4981,-56.86
370.5981,-55.82
370.6981,-55.73
370.7981,-56.39
370.8981,-56.86
370.9981,-56.86
371.0981,-56.2
371.1981,-55.17
371.2981,-55.54
371.3981,-56.01
371.4981,-56.01
371.5981,-57.89
371.6981,-55.26
371.7981,-54.69
371.8981,-55.54
371.9981,-55.17
372.0981,-54.6
372.1981,-53.09
372.2981,-53.0
372.3981,-53.85
372.4981,-54.51
372.5981,-54.41
372.6981,-56.39
372.7981,-55.73
372.8981,-56.39
372.9981,-57.14
373.0981,-56.39
373.1981,-56.01
373.2981,-56.48
373.3981,-54.88
373.4981,-55.07
373.5981,-56.01
373.6981,-56.58
373.7981,-57.42
373.8981,-56.2
373.9981,-55.54
374.0981,-55.17
374.1981,-56.95
374.2981,-56.67
374.3981,-56.86
374.4981,-55.54
374.5981,-54.41
374.6981,-56.11
374.7981,-55.45
374.8981,-55.07
374.9981,-55.92
375.0981,-54.6
375.1981,-54.04
375.2981,-54.88
375.3981,-54.88
375.4981,-55.54
375.5981,-56.11
375.6981,-55.26
375.7981,-54.88
375.8981,-55.92
375.9981,-55.17
376.0981,-55.45
376.1981,-56.2
376.2981,-54.79
376.3981,-55.17
376.4981,-55.92
376.5981,-55.82
376.6981,-54.6
376.7981,-54.98
376.8981,-56.77
376.9981,-55.45
377.0981,-54.69
377.1981,-55.17
377.2981,-54.79
377.3981,-55.82
377.4981,-56.2
377.5981,-56.01
377.6981,-56.86
377.7981,-56.77
377.8981,-55.82
377.9981,-56.39
378.0981,-56.86
378.1981,-58.18
378.2981,-56.77
378.3981,-56.67
378.4981,-55.92
378.5981,-55.45
378.6981,-55.26
378.7981,-55.45
378.8981,-56.39
378.9981,-57.14
379.0981,-57.05
379.1981,-57.42
379.2981,-57.24
379.3981,-57.33
379.4981,-56.95
379.5981,-53.75
379.6981,-53.28
379.7981,-53.94
379.8981,-53.38
379.9981,-54.6
380.0981,-54.51
380.1981,-54.32
380.2981,-54.13
380.3981,-54.6
380.4981,-54.98
380.5981,-54.79
380.6981,-54.88
380.7981,-55.64
380.8981,-56.86
380.9981,-56.29
381.0981,-56.58
381.1981,-57.33
381.2981,-55.82
381.3981,-56.2
381.4981,-56.39
381.5981,-56.67
381.6981,-55.82
381.7981,-56.48
381.8981,-55.82
381.9981,-56.67
382.0981,-55.26
382.1981,-55.17
382.2981,-55.54
382.3981,-55.64
382.4981,-56.48
382.5981,-56.48
382.6981,-56.95
382.7981,-54.88
382.8981,-54.6
382.9981,-55.45
383.0981,-55.17
383.1981,-54.22
383.2981,-55.26
383.3981,-55.92
383.4981,-55.35
383.5981,-54.04
383.6981,-55.73
383.7981,-56.01
383.8981,-55.17
383.9981,-54.88
384.0981,-54.88
384.1981,-55.73
384.2981,-55.92
384.3981,-54.41
384.4981,-55.07
384.5981,-55.73
384.6981,-56.2
384.7981,-55.54
384.8981,-55.45
384.9981,-55.45
385.0981,-54.6
385.1981,-55.07
385.2981,-53.66
385.3981,-54.04
385.4981,-54.69
385.5981,-54.6
385.6981,-55.45
385.7981,-56.29
385.8981,-57.05
385.9981,-57.24
386.0981,-56.77
386.1981,-56.29
386.2981,-55.35
386.3981,-55.07
386.4981,-54.98
386.5981,-56.29
386.6981,-56.86
386.7981,-56.2
386.8981,-55.45
386.9981,-56.01
387.0981,-56.01
387.1981,-55.26
387.2981,-55.92
387.3981,-56.01
387.4981,-56.95
387.5981,-57.14
387.6981,-56.67
387.7981,-55.26
387.8981,-54.41
387.9981,-53.19
388.0981,-54.13
388.1981,-55.73
388.2981,-55.26
388.3981,-55.26
388.4981,-55.82
388.5981,-53.57
388.6981,-53.19
388.7981,-53.0
388.8981,-54.04
388.9981,-54.51
389.0981,-54.32
389.1981,-55.92
389.2981,-56.67
389.3981,-56.01
389.4981,-55.07
389.5981,-55.82
389.6981,-57.24
389.7981,-55.73
389.8981,-55.35
389.9981,-54.98
390.0981,-56.67
390.1981,-57.89
390.2981,-57.33
390.3981,-56.67
390.4981,-55.92
390.5981,-57.61
390.6981,-57.61
390.7981,-58.84
390.8981,-58.55
390.9981,-56.86
391.0981,-54.22
391.1981,-53.38
391.2981,-54.69
391.3981,-56.01
391.4981,-54.41
391.5981,-54.88
391.6981,-55.26
391.7981,-55.17
391.8981,-55.92
391.9981,-57.52
392.0981,-57.14
392.1981,-55.26
392.2981,-54.88
392.3981,-56.29
392.4981,-56.95
392.5981,-56.39
392.6981,-56.01
392.7981,-56.58
392.8981,-56.11
392.9981,-53.85
393.0981,-52.91
393.1981,-54.04
393.2981,-56.77
393.3981,-54.88
393.4981,-54.98
393.5981,-54.32
393.6981,-54.88
393.7981,-55.54
393.8981,-56.01
393.9981,-55.73
394.0981,-55.54
394.1981,-54.32
394.2981,-54.69
394.3981,-55.54
394.4981,-55.82
394.5981,-56.39
394.6981,-56.2
394.7981,-56.29
394.8981,-56.95
394.9981,-57.61
395.0981,-57.42
395.1981,-56.77
395.2981,-56.86
395.3981,-57.52
395.4981,-57.42
395.5981,-57.14
395.6981,-57.33
395.7981,-56.95
395.8981,-56.11
395.9981,-55.26
396.0981,-54.6
396.1981,-54.79
396.2981,-54.32
396.3981,-55.07
396.4981,-56.67
396.5981,-57.14
396.6981,-55.26
396.7981,-55.82
396.8981,-54.98
396.9981,-55.35
397.0981,-55.82
397.1981,-55.17
397.2981,-55.17
397.3981,-56.2
397.4981,-55.45
397.5981,-55.45
397.6981,-55.07
397.7981,-54.98
397.8981,-54.98
397.9981,-55.45
398.0981,-55.92
398.1981,-56.95
398.2981,-55.73
398.3981,-54.6
398.4981,-56.39
398.5981,-58.27
398.6981,-57.89
398.7981,-56.95
398.8981,-56.39
398.9981,-57.52
399.0981,-56.2
399.1981,-55.92
399.2981,-57.52
399.3981,-55.17
399.4981,-55.26
399.5981,-55.73
399.6981,-55.82
399.7981,-54.88
399.8981,-55.64
399.9981,-55.54
400.0981,-56.11
400.1981,-56.58
400.2981,-54.98
400.3981,-55.54
400.4981,-56.2
400.5981,-56.01
400.6981,-55.45
400.7981,-55.82
400.8981,-57.8
400.9981,-58.27
401.0981,-57.52
401.1981,-56.95
401.2981,-55.17
401.3981,-54.13
401.4981,-54.41
401.5981,-55.64
401.6981,-56.58
401.7981,-54.69
401.8981,-55.07
401.9981,-55.82
402.0981,-56.2
402.1981,-55.45
402.2981,-54.79
402.3981,-55.45
402.4981,-55.64
402.5981,-55.92
402.6981,-55.82
402.7981,-55.54
402.8981,-55.26
402.9981,-56.01
403.0981,-55.82
403.1981,-55.54
403.2981,-55.73
403.3981,-56.01
403.4981,-57.24
403.5981,-56.77
403.6981,-57.61
403.7981,-57.33
403.8981,-56.67
403.9981,-56.58
404.0981,-56.95
404.1981,-56.01
404.2981,-55.64
404.3981,-55.35
404.4981,-55.17
404.5981,-56.11
404.6981,-56.58
404.7981,-55.82
404.8981,-57.14
404.9981,-58.08
405.0981,-57.89
405.1981,-57.14
405.2981,-56.01
405.3981,-55.07
405.4981,-56.39
405.5981,-56.48
405.6981,-56.39
405.7981,-55.45
405.8981,-54.41
405.9981,-55.82
406.0981,-56.95
406.1981,-56.86
406.2981,-56.11
406.3981,-57.71
406.4981,-56.67
406.5981,-57.05
406.6981,-56.86
406.7981,-57.42
406.8981,-56.39
406.9981,-56.39
407.0981,-56.48
407.1981,-56.29
407.2981,-56.48
407.3981,-56.48
407.4981,-56.67
407.5981,-56.58
407.6981,-55.64
407.7981,-56.01
407.8981,-56.01
407.9981,-55.64
408.0981,-56.77
408.1981,-57.71
408.2981,-57.24
408.3981,-56.86
408.4981,-56.2
408.5981,-55.82
408.6981,-54.32
408.7981,-54.04
408.8981,-54.6
408.9981,-55.26
409.0981,-57.52
409.1981,-56.67
409.2981,-56.29
409.3981,-55.64
409.4981,-56.39
409.5981,-55.35
409.6981,-55.07
409.7981,-55.45
409.8981,-55.92
409.9981,-56.01
410.0981,-56.48
410.1981,-55.54
410.2981,-55.17
410.3981,-54.88
410.4981,-55.64
410.5981,-56.39
410.6981,-54.6
410.7981,-55.82
410.8981,-54.69
410.9981,-53.47
411.0981,-54.32
411.1981,-54.79
411.2981,-56.39
411.3981,-56.67
411.4981,-57.61
411.5981,-56.77
411.6981,-57.05
411.7981,-57.33
411.8981,-57.33
411.9981,-56.2
412.0981,-57.05
412.1981,-57.71
412.2981,-56.39
412.3981,-55.92
412.4981,-56.58
412.5981,-56.77
412.6981,-56.67
412.7981,-55.45
412.8981,-55.64
412.9981,-55.64
413.0981,-56.29
413.1981,-56.01
413.2981,-55.54
413.3981,-55.35
413.4981,-55.54
413.5981,-55.54
413.6981,-54.32
413.7981,-55.45
413.8981,-55.73
413.9981,-56.29
414.0981,-56.11
414.1981,-55.07
414.2981,-54.88
414.3981,-56.2
414.4981,-57.24
414.5981,-55.64
414.6981,-55.92
414.7981,-55.73
414.8981,-57.33
414.9981,-55.73
415.0981,-56.11
415.1981,-56.2
415.2981,-56.48
415.3981,-57.33
415.4981,-56.67
415.5981,-56.77
415.6981,-55.82
415.7981,-54.88
415.8981,-55.73
415.9981,-56.29
416.0981,-57.05
416.1981,-56.39
416.2981,-55.92
416.3981,-56.86
416.4981,-56.58
416.5981,-57.71
416.6981,-57.33
416.7981,-57.14
416.8981,-57.24
416.9981,-56.58
417.0981,-55.92
417.1981,-55.17
417.2981,-56.01
417.3981,-55.17
417.4981,-56.48
417.5981,-56.86
417.6981,-56.01
417.7981,-55.73
417.8981,-56.39
417.9981,-55.64
418.0981,-56.67
418.1981,-57.61
418.2981,-56.39
418.3981,-56.2
418.4981,-55.73
418.5981,-55.92
418.6981,-55.92
418.7981,-57.42
418.8981,-56.39
418.9981,-54.69
419.0981,-55.17
419.1981,-55.73
419.2981,-55.92
419.3981,-55.73
419.4981,-56.86
419.5981,-58.08
419.6981,-57.99
419.7981,-56.39
419.8981,-56.77
419.9981,-55.82
420.0981,-54.41
420.1981,-54.79
420.2981,-56.39
420.3981,-56.39
420.4981,-57.33
420.5981,-57.71
420.6981,-56.77
420.7981,-58.18
420.8981,-57.42
420.9981,-57.14
421.0981,-56.29
421.1981,-56.29
421.2981,-56.39
421.3981,-56.77
421.4981,-56.58
421.5981,-56.2
421.6981,-56.11
421.7981,-57.33
421.8981,-56.29
421.9981,-57.24
422.0981,-56.48
422.1981,-55.92
422.2981,-57.14
422.3981,-56.58
422.4981,-57.05
422.5981,-57.33
422.6981,-58.27
422.7981,-58.65
422.8981,-55.17
422.9981,-55.17
423.0981,-57.33
423.1981,-57.42
423.2981,-57.71
423.3981,-58.18
423.4981,-57.33
423.5981,-56.2
423.6981,-56.48
423.7981,-56.2
423.8981,-55.73
423.9981,-56.86
424.0981,-56.58
424.1981,-56.67
424.2981,-57.52
424.3981,-56.86
424.4981,-57.05
424.5981,-56.39
424.6981,-56.48
424.7981,-57.42
424.8981,-57.33
424.9981,-58.18
425.0981,-55.92
425.1981,-55.82
425.2981,-56.86
425.3981,-55.64
425.4981,-56.11
425.5981,-57.14
425.6981,-56.77
425.7981,-56.2
425.8981,-55.92
425.9981,-55.54
426.0981,-56.2
426.1981,-56.58
426.2981,-57.42
426.3981,-57.33
426.4981,-57.24
426.5981,-56.95
426.6981,-55.82
426.7981,-56.86
426.8981,-56.77
426.9981,-55.92
427.0981,-56.2
427.1981,-56.67
427.2981,-54.41
427.3981,-54.51
427.4981,-57.99
427.5981,-56.29
427.6981,-56.77
427.7981,-56.77
427.8981,-56.95
427.9981,-57.52
428.0981,-57.52
428.1981,-56.95
428.2981,-57.14
428.3981,-56.86
428.4981,-57.05
428.5981,-57.71
428.6981,-58.27
428.7981,-56.95
428.8981,-57.33
428.9981,-58.55
429.0981,-56.77
429.1981,-55.73
429.2981,-56.48
429.3981,-57.24
429.4981,-56.86
429.5981,-56.48
429.6981,-56.58
429.7981,-55.54
429.8981,-55.54
429.9981,-54.69
430.0981,-55.07
430.1981,-55.82
430.2981,-54.6
430.3981,-55.17
430.4981,-56.29
430.5981,-55.54
430.6981,-55.26
430.7981,-55.35
430.8981,-56.48
430.9981,-56.39
431.0981,-56.86
431.1981,-57.89
431.2981,-57.61
431.3981,-57.05
431.4981,-56.2
431.5981,-57.05
431.6981,-56.39
431.7981,-56.39
431.8981,-56.11
431.9981,-56.2
432.0981,-56.39
432.1981,-57.8
432.2981,-58.46
432.3981,-58.37
432.4981,-57.24
432.5981,-56.01
432.6981,-56.39
432.7981,-55.92
432.8981,-56.48
432.9981,-56.48
433.0981,-56.67
433.1981,-56.86
433.2981,-56.48
433.3981,-57.05
433.4981,-57.14
433.5981,-56.86
433.6981,-56.01
433.7981,-56.86
433.8981,-56.67
433.9981,-56.95
434.0981,-56.39
434.1981,-55.73
434.2981,-56.48
434.3981,-57.33
434.4981,-57.71
434.5981,-56.29
434.6981,-57.14
434.7981,-57.24
434.8981,-56.77
434.9981,-56.39
435.0981,-57.33
435.1981,-59.21
435.2981,-56.39
435.3981,-55.07
435.4981,-55.26
435.5981,-56.29
435.6981,-57.33
435.7981,-55.92
435.8981,-56.39
435.9981,-57.71
436.0981,-58.18
436.1981,-56.11
436.2981,-56.2
436.3981,-55.17
436.4981,-55.17
436.5981,-56.11
436.6981,-56.58
436.7981,-56.39
436.8981,-56.2
436.9981,-56.67
437.0981,-57.33
437.1981,-57.05
437.2981,-56.29
437.3981,-55.92
437.4981,-56.77
437.5981,-56.29
437.6981,-56.77
437.7981,-56.29
437.8981,-57.05
437.9981,-57.14
438.0981,-56.77
438.1981,-54.6
438.2981,-56.39
438.3981,-56.58
438.4981,-56.01
438.5981,-55.73
438.6981,-57.24
438.7981,-58.74
438.8981,-57.89
438.9981,-56.29
439.0981,-55.64
439.1981,-56.11
439.2981,-55.17
439.3981,-55.17
439.4981,-57.05
439.5981,-57.33
439.6981,-57.14
439.7981,-56.58
439.8981,-57.14
439.9981,-56.2
440.0981,-55.82
440.1981,-56.67
440.2981,-56.86
440.3981,-56.11
440.4981,-56.11
440.5981,-55.92
440.6981,-56.58
440.7981,-56.77
440.8981,-57.52
440.9981,-56.95
441.0981,-55.45
441.1981,-57.61
441.2981,-57.99
441.3981,-56.11
441.4981,-55.82
441.5981,-56.58
441.6981,-56.58
441.7981,-55.35
441.8981,-55.54
441.9981,-56.77
442.0981,-56.48
442.1981,-57.24
442.2981,-57.71
442.3981,-56.77
442.4981,-57.33
442.5981,-58.18
442.6981,-56.86
442.7981,-57.14
442.8981,-56.01
442.9981,-55.82
443.0981,-56.39
443.1981,-56.48
443.2981,-55.07
443.3981,-55.92
443.4981,-57.24
443.5981,-56.01
443.6981,-56.2
443.7981,-57.61
443.8981,-57.99
443.9981,-57.52
444.0981,-55.64
444.1981,-54.69
444.2981,-55.26
444.3981,-55.92
444.4981,-56.95
444.5981,-55.92
444.6981,-56.11
444.7981,-56.2
444.8981,-55.45
444.9981,-55.73
445.0981,-57.8
445.1981,-57.42
445.2981,-56.58
445.3981,-57.33
445.4981,-57.24
445.5981,-57.8
445.6981,-59.02
445.7981,-57.71
445.8981,-57.05
445.9981,-57.33
446.0981,-57.14
446.1981,-57.99
446.2981,-57.42
446.3981,-57.61
446.4981,-56.67
446.5981,-56.11
446.6981,-56.11
446.7981,-55.26
446.8981,-56.2
446.9981,-56.58
447.0981,-57.99
447.1981,-57.71
447.2981,-56.01
447.3981,-56.77
447.4981,-56.29
447.5981,-55.45
447.6981,-56.01
447.7981,-57.33
447.8981,-56.2
447.9981,-56.2
448.0981,-55.64
448.1981,-56.58
448.2981,-56.01
448.3981,-56.2
448.4981,-57.52
448.5981,-56.29
448.6981,-55.26
448.7981,-55.45
448.8981,-56.48
448.9981,-56.39
449.0981,-55.73
449.1981,-55.26
449.2981,-55.82
449.3981,-56.86
449.4981,-56.39
449.5981,-55.17
449.6981,-56.01
449.7981,-56.01
449.8981,-55.54
449.9981,-56.29
450.0981,-56.39
450.1981,-57.14
450.2981,-57.05
450.3981,-56.86
450.4981,-56.95
450.5981,-56.67
450.6981,-56.39
450.7981,-56.86
450.8981,-58.08
450.9981,-56.2
451.0981,-57.42
451.1981,-57.14
451.2981,-56.86
451.3981,-55.73
451.4981,-57.24
451.5981,-58.55
451.6981,-56.95
451.7981,-57.8
451.8981,-57.89
451.9981,-56.86
452.0981,-56.39
452.1981,-57.89
452.2981,-58.46
452.3981,-57.24
452.4981,-56.77
452.5981,-55.54
452.6981,-55.35
452.7981,-56.2
452.8981,-56.48
452.9981,-56.01
453.0981,-57.05
453.1981,-56.95
453.2981,-56.95
453.3981,-56.95
453.4981,-56.95
453.5981,-56.67
453.6981,-56.95
453.7981,-57.8
453.8981,-56.39
453.9981,-57.8
454.0981,-57.89
454.1981,-56.67
454.2981,-55.73
454.3981,-55.35
454.4981,-55.45
454.5981,-55.73
454.6981,-55.26
454.7981,-57.33
454.8981,-56.2
454.9981,-56.29
455.0981,-57.42
455.1981,-56.86
455.2981,-56.67
455.3981,-58.46
455.4981,-56.01
455.5981,-56.77
455.6981,-55.92
455.7981,-57.24
455.8981,-57.33
455.9981,-56.11
456.0981,-56.11
456.1981,-55.17
456.2981,-56.11
456.3981,-55.73
456.4981,-55.64
456.5981,-55.64
456.6981,-57.05
456.7981,-56.29
456.8981,-55.92
456.9981,-56.77
457.0981,-56.2
457.1981,-56.39
457.2981,-56.48
457.3981,-55.92
457.4981,-56.2
457.5981,-56.29
457.6981,-56.2
457.7981,-56.11
457.8981,-54.79
457.9981,-55.64
458.0981,-55.82
458.1981,-57.52
458.2981,-56.48
458.3981,-56.29
458.4981,-55.92
458.5981,-56.77
458.6981,-57.8
458.7981,-56.95
458.8981,-55.64
458.9981,-56.01
459.0981,-56.39
459.1981,-55.35
459.2981,-56.39
459.3981,-58.27
459.4981,-57.42
459.5981,-56.58
459.6981,-57.42
459.7981,-56.67
459.8981,-56.2
459.9981,-56.11
460.0981,-57.89
460.1981,-56.95
460.2981,-54.69
460.3981,-54.88
460.4981,-56.11
460.5981,-55.07
460.6981,-55.73
460.7981,-57.14
460.8981,-56.01
460.9981,-56.86
461.0981,-56.48
461.1981,-56.39
461.2981,-56.86
461.3981,-56.58
461.4981,-56.77
461.5981,-57.52
461.6981,-56.67
461.7981,-56.39
461.8981,-56.11
461.9981,-57.24
462.0981,-56.86
462.1981,-57.33
462.2981,-56.58
462.3981,-56.11
462.4981,-55.64
462.5981,-56.11
462.6981,-55.26
462.7981,-56.29
462.8981,-56.58
462.9981,-56.01
463.0981,-56.77
463.1981,-57.99
463.2981,-57.61
463.3981,-56.48
463.4981,-55.73
463.5981,-57.33
463.6981,-56.58
463.7981,-55.92
463.8981,-55.45
463.9981,-56.29
464.0981,-56.67
464.1981,-57.33
464.2981,-56.2
464.3981,-57.24
464.4981,-56.2
464.5981,-55.92
464.6981,-56.01
464.7981,-56.39
464.8981,-58.37
464.9981,-57.52
465.0981,-57.42
465.1981,-56.01
465.2981,-55.92
465.3981,-55.17
465.4981,-55.64
465.5981,-56.95
465.6981,-56.67
465.7981,-55.92
465.8981,-54.69
465.9981,-54.32
466.0981,-53.94
466.1981,-55.35
466.2981,-56.01
466.3981,-57.61
466.4981,-57.42
466.5981,-57.52
466.6981,-55.26
466.7981,-56.39
466.8981,-56.86
466.9981,-58.55
467.0981,-58.84
467.1981,-57.71
467.2981,-56.95
467.3981,-57.05
467.4981,-57.14
467.5981,-56.48
467.6981,-57.05
467.7981,-57.61
467.8981,-57.24
467.9981,-57.42
468.0981,-56.95
468.1981,-56.01
468.2981,-55.64
468.3981,-56.95
468.4981,-57.42
468.5981,-56.95
468.6981,-56.58
468.7981,-56.48
468.8981,-55.92
468.9981,-55.92
469.0981,-56.2
469.1981,-56.29
469.2981,-55.17
469.3981,-55.45
469.4981,-56.01
469.5981,-57.14
469.6981,-57.14
469.7981,-56.48
469.8981,-55.64
469.9981,-55.35
470.0981,-57.05
470.1981,-56.95
470.2981,-55.82
470.3981,-55.82
470.4981,-55.54
470.5981,-56.39
470.6981,-58.08
470.7981,-57.14
470.8981,-56.39
470.9981,-57.33
471.0981,-57.05
471.1981,-57.05
471.2981,-58.08
471.3981,-57.8
471.4981,-57.42
471.5981,-57.24
471.6981,-57.99
471.7981,-58.27
471.8981,-58.74
471.9981,-56.77
472.0981,-56.29
472.1981,-56.2
472.2981,-56.01
472.3981,-57.05
472.4981,-58.08
472.5981,-58.27
472.6981,-57.14
472.7981,-57.99
472.8981,-58.08
472.9981,-56.58
473.0981,-57.42
473.1981,-56.77
473.2981,-55.45
473.3981,-55.26
473.4981,-56.01
473.5981,-55.82
473.6981,-54.98
473.7981,-54.79
473.8981,-55.35
473.9981,-55.92
474.0981,-54.98
474.1981,-56.29
474.2981,-55.54
474.3981,-55.54
474.4981,-57.71
474.5981,-57.8
474.6981,-55.64
474.7981,-56.58
474.8981,-58.46
474.9981,-56.77
475.0981,-56.39
475.1981,-55.64
475.2981,-55.26
475.3981,-55.54
475.4981,-55.82
475.5981,-56.67
475.6981,-57.89
475.7981,-56.95
475.8981,-57.24
475.9981,-58.08
476.0981,-57.24
476.1981,-57.52
476.2981,-58.46
476.3981,-58.84
476.4981,-57.8
476.5981,-57.24
476.6981,-56.48
476.7981,-56.11
476.8981,-57.24
476.9981,-56.67
477.0981,-56.01
477.1981,-56.95
477.2981,-57.05
477.3981,-56.11
477.4981,-56.48
477.5981,-55.35
477.6981,-55.26
477.7981,-55.17
477.8981,-55.45
477.9981,-56.2
478.0981,-55.73
478.1981,-56.48
478.2981,-56.39
478.3981,-56.39
478.4981,-56.48
478.5981,-56.2
478.6981,-56.01
478.7981,-54.79
478.8981,-54.51
478.9981,-56.48
479.0981,-57.42
479.1981,-56.67
479.2981,-56.95
479.3981,-56.01
479.4981,-56.29
479.5981,-56.95
479.6981,-58.55
479.7981,-57.61
479.8981,-57.61
479.9981,-57.8
480.0981,-57.8
480.1981,-57.14
480.2981,-56.58
480.3981,-56.48
480.4981,-55.45
480.5981,-55.26
480.6981,-56.2
480.7981,-57.24
480.8981,-58.08
480.9981,-57.14
481.0981,-56.2
481.1981,-56.77
481.2981,-57.42
481.3981,-57.33
481.4981,-57.24
481.5981,-57.33
481.6981,-55.92
481.7981,-56.48
481.8981,-56.39
481.9981,-55.73
482.0981,-55.35
482.1981,-56.2
482.2981,-56.86
482.3981,-56.11
482.4981,-57.24
482.5981,-57.24
482.6981,-56.2
482.7981,-55.73
482.8981,-56.39
482.9981,-59.31
483.0981,-57.33
483.1981,-56.48
483.2981,-56.29
483.3981,-56.58
483.4981,-56.29
483.5981,-55.45
483.6981,-56.67
483.7981,-56.48
483.8981,-56.86
483.9981,-56.95
484.0981,-55.92
484.1981,-57.89
484.2981,-57.33
484.3981,-56.48
484.4981,-57.89
484.5981,-58.74
484.6981,-56.77
484.7981,-56.58
484.8981,-56.77
484.9981,-57.33
485.0981,-56.86
485.1981,-55.92
485.2981,-56.86
485.3981,-57.33
485.4981,-56.2
485.5981,-56.2
485.6981,-55.73
485.7981,-57.42
485.8981,-57.71
485.9981,-58.46
486.0981,-56.95
486.1981,-57.05
486.2981,-55.17
486.3981,-54.04
486.4981,-55.45
486.5981,-56.11
486.6981,-56.67
486.7981,-55.26
486.8981,-55.54
486.9981,-55.64
487.0981,-56.58
487.1981,-56.77
487.2981,-55.07
487.3981,-55.35
487.4981,-56.86
487.5981,-56.48
487.6981,-57.42
487.7981,-57.99
487.8981,-57.89
487.9981,-57.42
488.0981,-56.11
488.1981,-55.92
488.2981,-56.39
488.3981,-57.14
488.4981,-57.8
488.5981,-56.67
488.6981,-56.2
488.7981,-56.48
488.8981,-56.67
488.9981,-55.45
489.0981,-55.45
489.1981,-58.08
489.2981,-57.71
489.3981,-56.86
489.4981,-57.14
489.5981,-56.86
489.6981,-56.86
489.7981,-56.29
489.8981,-57.14
489.9981,-56.86
490.0981,-56.48
490.1981,-56.29
490.2981,-57.33
490.3981,-57.14
490.4981,-56.39
490.5981,-57.8
490.6981,-56.29
490.7981,-57.05
490.8981,-56.95
490.9981,-56.77
491.8981,-82.27
491.9981,-57.61
492.0981,-57.61
492.1981,-57.33
492.2981,-57.61
492.3981,-57.33
492.4981,-57.05
492.5981,-56.11
492.6981,-54.98
492.7981,-55.54
492.8981,-55.54
492.9981,-56.58
493.0981,-56.39
493.1981,-56.39
493.2981,-56.58
493.3981,-56.29
493.4981,-56.11
493.5981,-57.24
493.6981,-57.24
493.7981,-56.86
493.8981,-57.52
493.9981,-57.52
494.0981,-57.71
494.1981,-58.93
494.2981,-57.42
494.3981,-56.86
494.4981,-56.67
494.5981,-55.64
494.6981,-56.29
494.7981,-57.42
494.8981,-56.86
494.9981,-57.14
495.0981,-57.8
495.1981,-56.95
495.2981,-56.2
495.3981,-56.11
495.4981,-57.89
495.5981,-56.2
495.6981,-55.82
495.7981,-56.58
495.8981,-57.14
495.9981,-56.2
496.0981,-55.54
496.1981,-55.17
496.2981,-55.26
496.3981,-55.35
496.4981,-55.07
496.5981,-56.01
496.6981,-55.82
496.7981,-56.86
496.8981,-56.77
496.9981,-55.54
497.0981,-55.64
497.1981,-55.92
497.2981,-56.11
497.3981,-55.82
497.4981,-56.58
497.5981,-57.05
497.6981,-56.39
497.7981,-56.29
497.8981,-56.29
497.9981,-56.67
498.0981,-56.48
498.1981,-57.42
498.2981,-57.14
498.3981,-55.45
498.4981,-56.2
498.5981,-57.42
498.6981,-57.24
498.7981,-56.77
498.8981,-56.2
498.9981,-56.01
499.0981,-56.67
499.1981,-57.42
499.2981,-57.99
499.3981,-57.89
499.4981,-58.27
499.5981,-56.11
499.6981,-57.71
499.7981,-58.65
499.8981,-57.42
499.9981,-57.52
500.0981,-58.74
500.1981,-57.24
500.2981,-55.54
500.3981,-55.26
500.4981,-55.07
500.5981,-55.26
500.6981,-55.92
500.7981,-56.77
500.8981,-55.64
500.9981,-56.2
501.0981,-56.2
501.1981,-58.37
501.2981,-57.52
501.3981,-56.01
501.4981,-55.73
501.5981,-56.58
501.6981,-57.52
501.7981,-56.67
501.8981,-57.71
501.9981,-57.52
502.0981,-57.42
502.1981,-56.58
502.2981,-57.42
502.3981,-59.59
502.4981,-57.61
502.5981,-57.89
502.6981,-57.61
502.7981,-56.29
502.8981,-56.48
502.9981,-56.67
503.0981,-56.58
503.1981,-56.67
503.2981,-55.82
503.3981,-56.58
503.4981,-56.95
503.5981,-57.14
503.6981,-57.42
503.7981,-56.48
503.8981,-56.77
503.9981,-56.86
504.0981,-55.64
504.1981,-55.82
504.2981,-56.11
504.3981,-55.35
504.4981,-56.39
504.5981,-57.33
504.6981,-56.48
504.7981,-54.51
504.8981,-55.07
504.9981,-55.82
505.0981,-57.33
505.1981,-57.89
505.2981,-57.71
505.3981,-58.08
505.4981,-56.67
505.5981,-56.58
505.6981,-57.05
505.7981,-56.11
505.8981,-56.11
505.9981,-57.52
506.0981,-56.29
506.1981,-56.39
506.2981,-57.24
506.3981,-58.46
506.4981,-57.71
506.5981,-58.37
506.6981,-57.05
506.7981,-56.58
506.8981,-56.2
506.9981,-56.95
507.0981,-58.08
507.1981,-58.18
507.2981,-56.86
507.3981,-57.42
507.4981,-58.18
507.5981,-56.95
507.6981,-55.45
507.7981,-57.71
507.8981,-58.46
507.9981,-56.77
508.0981,-58.27
508.1981,-57.71
508.2981,-57.52
508.3981,-57.61
508.4981,-56.58
508.5981,-56.2
508.6981,-57.89
508.7981,-55.82
508.8981,-55.92
508.9981,-57.14
509.0981,-56.95
509.1981,-56.01
509.2981,-56.67
509.3981,-55.92
509.4981,-55.64
509.5981,-56.11
509.6981,-56.01
509.7981,-56.29
509.8981,-56.67
509.9981,-57.05
510.0981,-57.42
510.1981,-57.05
510.2981,-57.71
510.3981,-57.05
510.4981,-56.77
510.5981,-57.24
510.6981,-56.67
510.7981,-56.77
510.8981,-57.33
510.9981,-57.71
511.0981,-57.14
511.1981,-57.14
511.2981,-57.8
511.3981,-56.58
511.4981,-56.39
511.5981,-56.67
511.6981,-56.2
511.7981,-55.82
511.8981,-55.64
511.9981,-55.26
512.0981,-56.01
512.1981,-57.05
512.2981,-57.33
512.3981,-56.2
512.4981,-56.58
512.5981,-56.67
512.6981,-56.01
512.7981,-57.24
512.8981,-57.8
512.9981,-56.95
513.0981,-56.67
513.1981,-56.01
513.2981,-56.11
513.3981,-55.54
513.4981,-56.39
513.5981,-57.89
513.6981,-56.95
513.7981,-57.05
513.8981,-56.2
513.9981,-56.77
514.0981,-57.42
514.1981,-56.01
514.2981,-55.92
514.3981,-57.71
514.4981,-58.27
514.5981,-57.24
514.6981,-57.24
514.7981,-57.05
514.8981,-59.02
514.9981,-57.42
515.0981,-57.52
515.1981,-56.2
515.2981,-56.29
515.3981,-57.42
515.4981,-58.65
515.5981,-58.74
515.6981,-57.99
515.7981,-57.05
515.8981,-59.02
515.9981,-57.05
516.0981,-57.05
516.1981,-58.08
516.2981,-57.24
516.3981,-56.29
516.4981,-57.14
516.5981,-57.71
516.6981,-56.67
516.7981,-56.67
516.8981,-57.24
516.9981,-56.01
517.0981,-55.64
517.1981,-54.69
517.2981,-55.82
517.3981,-56.67
517.4981,-56.48
517.5981,-56.2
517.6981,-57.24
517.7981,-59.02
517.8981,-58.65
517.9981,-57.24
518.0981,-56.01
518.1981,-56.39
518.2981,-56.01
518.3981,-56.77
518.4981,-56.67
518.5981,-56.77
518.6981,-56.2
518.7981,-57.14
518.8981,-56.77
518.9981,-56.11
519.0981,-56.29
519.1981,-56.95
519.2981,-55.73
519.3981,-55.35
519.4981,-56.77
519.5981,-56.58
519.6981,-55.45
519.7981,-57.24
519.8981,-57.33
519.9981,-57.14
520.0981,-57.71
520.1981,-57.33
520.2981,-54.69
520.3981,-55.07
520.4981,-56.11
520.5981,-57.05
520.6981,-57.8
520.7981,-57.24
520.8981,-55.64
520.9981,-55.64
521.0981,-57.14
521.1981,-56.48
521.2981,-57.33
521.3981,-57.71
521.4981,-55.64
521.5981,-55.07
521.6981,-56.48
521.7981,-55.64
521.8981,-56.2
521.9981,-55.92
522.0981,-54.51
522.1981,-56.01
522.2981,-57.61
522.3981,-57.52
522.4981,-57.99
522.5981,-57.99
522.6981,-57.33
522.7981,-56.86
522.8981,-56.39
522.9981,-57.24
523.0981,-57.89
523.1981,-58.08
523.2981,-57.24
523.3981,-56.77
523.4981,-56.2
523.5981,-56.67
523.6981,-57.14
523.7981,-57.61
523.8981,-57.52
523.9981,-57.71
524.0981,-58.46
524.1981,-56.95
524.2981,-55.45
524.3981,-56.29
524.4981,-57.14
524.5981,-56.01
524.6981,-55.73
524.7981,-56.2
524.8981,-56.39
524.9981,-56.77
525.0981,-56.29
525.1981,-55.92
525.2981,-55.35
525.3981,-55.64
525.4981,-55.92
525.5981,-56.11
525.6981,-55.73
525.7981,-56.58
525.8981,-56.48
525.9981,-56.86
526.0981,-56.95
526.1981,-56.95
526.2981,-56.77
526.3981,-57.14
526.4981,-57.42
526.5981,-57.05
526.6981,-56.48
526.7981,-58.37
526.8981,-57.8
526.9981,-56.39
527.0981,-56.29
527.1981,-55.82
527.2981,-56.2
527.3981,-56.86
527.4981,-57.99
527.5981,-58.08
527.6981,-57.42
527.7981,-57.71
527.8981,-55.82
527.9981,-56.2
528.0981,-56.86
528.1981,-57.24
528.2981,-56.77
528.3981,-57.71
528.4981,-57.05
528.5981,-56.11
528.6981,-57.42
528.7981,-57.8
528.8981,-57.05
528.9981,-57.61
529.0981,-58.37
529.1981,-56.67
529.2981,-57.24
529.3981,-56.77
529.4981,-55.73
529.5981,-56.48
529.6981,-56.67
529.7981,-58.08
529.8981,-57.99
529.9981,-57.42
530.0981,-55.54
530.1981,-56.67
530.2981,-57.14
530.3981,-56.77
530.4981,-56.29
530.5981,-57.24
530.6981,-57.33
530.7981,-58.08
530.8981,-56.95
530.9981,-55.64
531.0981,-56.67
531.1981,-56.29
531.2981,-55.73
531.3981,-57.52
531.4981,-56.58
531.5981,-55.17
531.6981,-55.64
531.7981,-57.05
531.8981,-56.77
531.9981,-57.05
532.0981,-56.86
532.1981,-57.99
532.2981,-58.84
532.3981,-57.8
532.4981,-57.14
532.5981,-56.77
532.6981,-57.61
532.7981,-58.08
532.8981,-56.95
532.9981,-56.77
533.0981,-56.77
533.1981,-57.33
533.2981,-57.33
533.3981,-57.89
533.4981,-57.89
533.5981,-56.2
533.6981,-56.01
533.7981,-58.18
533.8981,-58.18
533.9981,-56.67
534.0981,-55.82
534.1981,-55.54
534.2981,-56.58
534.3981,-57.99
534.4981,-56.95
534.5981,-55.82
534.6981,-55.07
534.7981,-54.88
534.8981,-55.73
534.9981,-56.01
535.0981,-55.73
535.1981,-55.17
535.2981,-54.98
535.3981,-56.58
535.4981,-58.84
535.5981,-58.08
535.6981,-56.58
535.7981,-57.42
535.8981,-57.99
535.9981,-56.39
536.0981,-56.11
536.1981,-55.64
536.2981,-55.64
536.3981,-56.67
536.4981,-55.45
536.5981,-55.64
536.6981,-55.26
536.7981,-55.92
536.8981,-56.95
536.9981,-56.11
537.0981,-57.71
537.1981,-58.18
537.2981,-55.82
537.3981,-56.48
537.4981,-57.14
537.5981,-57.24
537.6981,-56.58
537.7981,-55.35
537.8981,-55.54
537.9981,-57.05
538.0981,-56.58
538.1981,-56.01
538.2981,-56.11
538.3981,-55.64
538.4981,-55.82
538.5981,-55.35
538.6981,-56.86
538.7981,-56.11
538.8981,-55.54
538.9981,-57.24
539.0981,-56.67
539.1981,-57.24
539.2981,-56.2
539.3981,-56.01
539.4981,-56.2
539.5981,-55.73
539.6981,-56.29
539.7981,-56.67
539.8981,-57.05
539.9981,-57.42
540.0981,-57.42
540.1981,-56.39
540.2981,-56.77
540.3981,-57.05
540.4981,-55.92
540.5981,-56.01
540.6981,-56.39
540.7981,-57.14
540.8981,-57.42
540.9981,-56.58
541.0981,-56.39
541.1981,-56.48
541.2981,-56.67
541.3981,-57.52
541.4981,-58.37
541.5981,-58.08
541.6981,-56.95
541.7981,-56.95
541.8981,-55.82
541.9981,-56.48
542.0981,-57.05
542.1981,-55.35
542.2981,-54.79
542.3981,-55.26
542.4981,-56.2
542.5981,-56.67
542.6981,-56.77
542.7981,-57.52
542.8981,-57.8
542.9981,-57.05
543.0981,-55.26
543.1981,-53.94
543.2981,-54.98
543.3981,-56.48
543.4981,-56.11
543.5981,-55.92
543.6981,-57.61
543.7981,-59.21
543.8981,-58.18
543.9981,-56.2
544.0981,-54.79
544.1981,-56.39
544.2981,-57.61
544.3981,-55.73
544.4981,-56.48
544.5981,-56.67
544.6981,-57.14
544.7981,-56.01
544.8981,-56.2
544.9981,-56.2
545.0981,-57.14
545.1981,-56.95
545.2981,-56.48
545.3981,-56.86
545.4981,-57.14
545.5981,-56.48
545.6981,-57.52
545.7981,-56.77
545.8981,-57.42
545.9981,-56.77
546.0981,-56.48
546.1981,-58.55
546.2981,-56.95
546.3981,-57.05
546.4981,-57.14
546.5981,-56.95
546.6981,-57.05
546.7981,-56.67
546.8981,-56.77
546.9981,-56.67
547.0981,-56.67
547.1981,-57.89
547.2981,-56.67
547.3981,-56.39
547.4981,-57.24
547.5981,-56.2
547.6981,-55.64
547.7981,-55.17
547.8981,-55.45
547.9981,-54.6
548.0981,-56.2
548.1981,-57.14
548.2981,-57.42
548.3981,-57.24
548.4981,-56.11
548.5981,-55.07
548.6981,-55.92
548.7981,-56.11
548.8981,-56.11
548.9981,-56.01
549.0981,-56.29
549.1981,-56.95
549.2981,-56.39
549.3981,-55.82
549.4981,-56.58
549.5981,-57.14
549.6981,-55.45
549.7981,-55.17
549.8981,-56.2
549.9981,-55.64
550.0981,-56.67
550.1981,-56.29
550.2981,-56.29
550.3981,-56.29
550.4981,-56.11
550.5981,-56.58
550.6981,-55.73
550.7981,-55.26
550.8981,-54.04
550.9981,-54.32
551.0981,-56.29
551.1981,-56.67
551.2981,-56.29
551.3981,-55.17
551.4981,-56.11
551.5981,-56.77
551.6981,-54.69
551.7981,-55.73
551.8981,-55.35
551.9981,-55.26
552.0981,-55.26
552.1981,-55.73
552.2981,-55.07
552.3981,-54.41
552.4981,-56.39
552.5981,-56.95
552.6981,-56.77
552.7981,-57.24
552.8981,-56.58
552.9981,-56.67
553.0981,-56.48
553.1981,-56.48
553.2981,-56.77
553.3981,-56.77
553.4981,-55.82
553.5981,-53.85
553.6981,-52.72
553.7981,-55.64
553.8981,-55.82
553.9981,-55.26
554.0981,-55.26
554.1981,-54.98
554.2981,-55.64
554.3981,-55.82
554.4981,-57.14
554.5981,-56.67
554.6981,-56.39
554.7981,-56.86
554.8981,-56.86
554.9981,-57.99
555.0981,-57.42
555.1981,-55.92
555.2981,-55.92
555.3981,-56.29
555.4981,-56.01
555.5981,-55.73
555.6981,-55.92
555.7981,-55.64
555.8981,-55.17
555.9981,-55.26
556.0981,-56.95
556.1981,-56.01
556.2981,-56.01
556.3981,-55.17
556.4981,-55.07
556.5981,-54.98
556.6981,-55.26
556.7981,-55.82
556.8981,-55.73
556.9981,-55.82
557.0981,-56.11
557.1981,-55.07
557.2981,-54.51
557.3981,-55.73
557.4981,-55.82
557.5981,-57.05
557.6981,-56.95
557.7981,-56.77
557.8981,-56.2
557.9981,-55.07
558.0981,-56.29
558.1981,-56.95
558.2981,-56.95
558.3981,-55.64
558.4981,-54.98
558.5981,-54.88
558.6981,-55.82
558.7981,-55.73
558.8981,-55.26
558.9981,-55.54
559.0981,-55.26
559.1981,-56.01
559.2981,-57.05
559.3981,-54.98
559.4981,-55.64
559.5981,-57.14
559.6981,-55.64
559.7981,-55.26
559.8981,-56.01
559.9981,-56.01
560.0981,-55.82
560.1981,-57.14
560.2981,-56.86
560.3981,-55.17
560.4981,-54.98
560.5981,-54.51
560.6981,-54.32
560.7981,-55.17
560.8981,-55.82
560.9981,-56.2
561.0981,-55.35
561.1981,-54.32
561.2981,-54.13
561.3981,-55.92
561.4981,-55.17
561.5981,-54.69
561.6981,-56.39
561.7981,-57.14
561.8981,-56.01
561.9981,-55.26
562.0981,-54.98
562.1981,-54.32
562.2981,-54.88
562.3981,-56.67
562.4981,-55.26
562.5981,-54.51
562.6981,-55.82
562.7981,-57.14
562.8981,-57.14
562.9981,-56.67
563.0981,-56.77
563.1981,-57.61
563.2981,-55.92
563.3981,-55.54
563.4981,-57.33
563.5981,-56.48
563.6981,-56.77
563.7981,-56.01
563.8981,-55.07
563.9981,-55.54
564.0981,-54.88
564.1981,-55.92
564.2981,-56.67
564.3981,-56.67
564.4981,-57.42
564.5981,-56.67
564.6981,-56.48
564.7981,-56.01
564.8981,-54.88
564.9981,-55.07
565.0981,-55.17
565.1981,-54.13
565.2981,-53.57
565.3981,-52.34
565.4981,-54.13
565.5981,-53.66
565.6981,-54.6
565.7981,-55.17
565.8981,-55.73
565.9981,-56.01
566.0981,-55.07
566.1981,-56.29
566.2981,-56.01
566.3981,-58.08
566.4981,-56.29
566.5981,-55.73
566.6981,-56.2
566.7981,-56.95
566.8981,-55.64
566.9981,-56.48
567.0981,-56.58
567.1981,-56.11
567.2981,-57.52
567.3981,-57.89
567.4981,-55.82
567.5981,-56.39
567.6981,-55.54
567.7981,-55.92
567.8981,-57.24
567.9981,-55.26
568.0981,-54.22
568.1981,-55.45
568.2981,-56.2
568.3981,-57.8
568.4981,-56.2
568.5981,-55.35
568.6981,-55.35
568.7981,-55.26
568.8981,-54.51
568.9981,-55.17
569.0981,-54.6
569.1981,-55.45
569.2981,-55.17
569.3981,-54.13
569.4981,-53.66
569.5981,-54.51
569.6981,-55.82
569.7981,-55.26
569.8981,-54.51
569.9981,-54.6
570.0981,-55.17
570.1981,-56.48
570.2981,-55.73
570.3981,-55.07
570.4981,-53.57
570.5981,-53.19
570.6981,-53.75
570.7981,-55.07
570.8981,-55.26
570.9981,-55.17
571.0981,-55.45
571.1981,-55.82
571.2981,-56.39
571.3981,-56.2
571.4981,-56.77
571.5981,-56.01
571.6981,-55.73
571.7981,-55.73
571.8981,-56.01
571.9981,-55.45
572.0981,-55.35
572.1981,-55.35
572.2981,-55.26
572.3981,-54.98
572.4981,-56.58
572.5981,-56.11
572.6981,-56.11
572.7981,-55.73
572.8981,-55.64
572.9981,-54.41
573.0981,-54.98
573.1981,-53.94
573.2981,-54.69
573.3981,-53.75
573.4981,-53.57
573.5981,-54.79
573.6981,-55.17
573.7981,-55.82
573.8981,-55.82
573.9981,-54.13
574.0981,-53.47
574.1981,-54.69
574.2981,-56.01
574.3981,-56.01
574.4981,-53.38
574.5981,-54.22
574.6981,-56.01
574.7981,-54.88
574.8981,-55.07
574.9981,-55.17
575.0981,-55.07
575.1981,-55.17
575.2981,-56.2
575.3981,-56.48
575.4981,-56.29
575.5981,-55.82
575.6981,-55.35
575.7981,-55.73
575.8981,-55.26
575.9981,-55.35
576.0981,-56.39
576.1981,-56.77
576.2981,-55.82
576.3981,-54.69
576.4981,-54.04
576.5981,-55.73
576.6981,-55.64
576.7981,-54.6
576.8981,-55.82
576.9981,-56.29
577.0981,-55.73
577.1981,-54.79
577.2981,-54.88
577.3981,-55.45
577.4981,-55.26
577.5981,-56.01
577.6981,-55.82
577.7981,-56.29
577.8981,-54.69
577.9981,-53.85
578.0981,-55.35
578.1981,-54.41
578.2981,-54.6
578.3981,-54.13
578.4981,-54.51
578.5981,-54.04
578.6981,-54.79
578.7981,-54.04
578.8981,-53.09
578.9981,-54.79
579.0981,-55.64
579.1981,-55.07
579.2981,-53.28
579.3981,-52.62
579.4981,-54.98
579.5981,-54.98
579.6981,-55.17
579.7981,-54.79
579.8981,-54.51
579.9981,-55.17
580.0981,-55.92
580.1981,-56.77
580.2981,-55.35
580.3981,-54.88
580.4981,-56.2
580.5981,-56.86
580.6981,-56.39
580.7981,-55.17
580.8981,-55.73
580.9981,-57.42
581.0981,-56.67
581.1981,-55.17
581.2981,-54.04
581.3981,-54.22
581.4981,-54.32
581.5981,-54.32
581.6981,-54.98
581.7981,-54.98
581.8981,-53.57
581.9981,-53.0
582.0981,-52.62
582.1981,-53.85
582.2981,-54.04
582.3981,-54.51
582.4981,-53.66
582.5981,-54.51
582.6981,-55.17
582.7981,-54.51
582.8981,-55.82
582.9981,-54.41
583.0981,-54.6
583.1981,-55.35
583.2981,-56.01
583.3981,-54.88
583.4981,-53.47
583.5981,-55.07
583.6981,-56.58
583.7981,-57.71
583.8981,-57.71
583.9981,-56.29
584.0981,-56.58
584.1981,-56.2
584.2981,-55.64
584.3981,-54.69
584.4981,-55.64
584.5981,-55.26
584.6981,-54.98
584.7981,-55.92
584.8981,-56.39
584.9981,-56.67
585.0981,-56.11
585.1981,-55.82
585.2981,-55.35
585.3981,-55.17
585.4981,-55.64
585.5981,-55.07
585.6981,-55.82
585.7981,-54.69
585.8981,-53.75
585.9981,-53.94
586.0981,-54.22
586.1981,-54.41
586.2981,-56.11
586.3981,-55.54
586.4981,-54.22
586.5981,-53.57
586.6981,-53.57
586.7981,-54.41
586.8981,-53.19
586.9981,-52.81
587.0981,-52.81
587.1981,-53.85
587.2981,-53.66
587.3981,-54.98
587.4981,-54.88
587.5981,-54.6
587.6981,-55.92
587.7981,-56.01
587.8981,-53.75
587.9981,-53.28
588.0981,-54.88
588.1981,-56.48
588.2981,-56.01
588.3981,-55.07
588.4981,-56.39
588.5981,-55.82
588.6981,-56.67
588.7981,-56.95
588.8981,-55.92
588.9981,-57.24
589.0981,-55.73
589.1981,-54.88
589.2981,-55.64
589.3981,-55.54
589.4981,-55.73
589.5981,-55.26
589.6981,-54.69
589.7981,-54.22
589.8981,-54.51
589.9981,-53.66
590.0981,-54.6
590.1981,-56.11
590.2981,-55.54
590.3981,-54.79
590.4981,-53.66
590.5981,-54.41
590.6981,-55.35
590.7981,-55.35
590.8981,-54.51
590.9981,-54.04
591.0981,-55.54
591.1981,-54.32
591.2981,-54.13
591.3981,-54.69
591.4981,-54.88
591.5981,-54.79
591.6981,-54.51
591.7981,-54.69
591.8981,-54.41
591.9981,-55.07
592.0981,-54.41
592.1981,-54.04
592.2981,-54.69
592.3981,-55.26
592.4981,-56.58
592.5981,-57.24
592.6981,-55.45
592.7981,-55.26
592.8981,-55.73
592.9981,-55.73
593.0981,-56.11
593.1981,-55.35
593.2981,-55.35
593.3981,-56.2
593.4981,-57.14
593.5981,-56.29
593.6981,-55.07
593.7981,-55.92
593.8981,-56.58
593.9981,-55.92
594.0981,-53.94
594.1981,-54.13
594.2981,-55.35
594.3981,-55.54
594.4981,-54.79
594.5981,-54.6
594.6981,-54.79
594.7981,-54.79
594.8981,-54.98
594.9981,-53.94
595.0981,-54.41
595.1981,-54.13
595.2981,-53.28
595.3981,-53.38
595.4981,-54.41
595.5981,-56.2
595.6981,-54.79
595.7981,-54.13
595.8981,-54.69
595.9981,-55.07
596.0981,-54.41
596.1981,-55.17
596.2981,-55.54
596.3981,-55.17
596.4981,-55.54
596.5981,-57.99
596.6981,-55.82
596.7981,-55.54
596.8981,-56.39
596.9981,-56.58
597.0981,-56.67
597.1981,-56.11
597.2981,-56.01
597.3981,-57.14
597.4981,-57.42
597.5981,-55.73
597.6981,-55.73
597.7981,-54.79
597.8981,-54.13
597.9981,-53.28
598.0981,-53.57
598.1981,-54.13
598.2981,-54.98
598.3981,-54.51
598.4981,-55.07
598.5981,-54.41
598.6981,-54.32
598.7981,-54.98
598.8981,-54.41
598.9981,-54.69
599.0981,-55.82
599.1981,-56.77
599.2981,-55.17
599.3981,-55.26
599.4981,-54.79
599.5981,-54.98
599.6981,-53.85
599.7981,-54.69
599.8981,-56.29
599.9981,-55.45
600.0981,-55.82
600.1981,-56.58
600.2981,-57.05
600.3981,-58.84
600.4981,-57.99
600.5981,-56.48
600.6981,-56.86
600.7981,-56.48
600.8981,-57.14
600.9981,-56.95
601.0981,-56.77
601.1981,-57.33
601.2981,-55.82
601.3981,-55.45
601.4981,-56.01
601.5981,-55.45
601.6981,-55.64
601.7981,-55.92
601.8981,-55.64
601.9981,-56.58
602.0981,-56.39
602.1981,-55.45
602.2981,-56.01
602.3981,-55.64
602.4981,-54.79
602.5981,-54.79
602.6981,-55.17
602.7981,-54.69
602.8981,-53.85
602.9981,-55.64
603.0981,-53.94
603.1981,-55.07
603.2981,-55.73
603.3981,-55.07
603.4981,-56.2
603.5981,-54.69
603.6981,-55.64
603.7981,-56.39
603.8981,-53.57
603.9981,-53.75
604.0981,-54.22
604.1981,-54.6
604.2981,-54.51
604.3981,-55.73
604.4981,-56.58
604.5981,-57.24
604.6981,-56.11
604.7981,-56.2
604.8981,-55.92
604.9981,-55.45
605.0981,-57.71
605.1981,-56.77
605.2981,-55.26
605.3981,-55.82
605.4981,-56.11
605.5981,-55.92
605.6981,-54.13
605.7981,-55.17
605.8981,-54.69
605.9981,-55.35
606.0981,-54.88
606.1981,-54.79
606.2981,-54.69
606.3981,-54.22
606.4981,-56.29
606.5981,-54.88
606.6981,-53.38
606.7981,-54.79
606.8981,-54.79
606.9981,-54.13
607.0981,-53.75
607.1981,-55.35
607.2981,-55.35
607.3981,-53.94
607.4981,-54.51
607.5981,-55.07
607.6981,-54.98
607.7981,-53.0
607.8981,-52.72
607.9981,-55.64
608.0981,-56.01
608.1981,-56.2
608.2981,-56.58
608.3981,-56.2
608.4981,-57.71
608.5981,-56.86
608.6981,-55.35
608.7981,-55.54
608.8981,-55.73
608.9981,-56.11
609.0981,-55.45
609.1981,-56.39
609.2981,-56.01
609.3981,-56.29
609.4981,-55.64
609.5981,-56.67
609.6981,-57.8
609.7981,-57.42
609.8981,-56.86
609.9981,-56.11
610.0981,-55.26
610.1981,-55.26
610.2981,-55.92
610.3981,-55.92
610.4981,-55.26
610.5981,-54.98
610.6981,-54.41
610.7981,-55.07
610.8981,-55.64
610.9981,-54.13
611.0981,-54.04
611.1981,-53.66
611.2981,-53.47
611.3981,-54.13
611.4981,-54.13
611.5981,-53.47
611.6981,-53.09
611.7981,-54.22
611.8981,-55.82
611.9981,-54.79
612.0981,-54.79
612.1981,-54.51
612.2981,-53.38
612.3981,-53.75
612.4981,-54.51
612.5981,-55.07
612.6981,-55.54
612.7981,-55.35
612.8981,-55.73
612.9981,-56.2
613.0981,-56.11
613.1981,-57.24
613.2981,-57.89
613.3981,-57.71
613.4981,-57.24
613.5981,-55.92
613.6981,-54.98
613.7981,-56.48
613.8981,-55.92
613.9981,-55.73
614.0981,-56.2
614.1981,-56.2
614.2981,-55.35
614.3981,-55.82
614.4981,-56.39
614.5981,-54.98
614.6981,-54.51
614.7981,-55.82
614.8981,-55.35
614.9981,-54.6
615.0981,-53.94
615.1981,-54.13
615.2981,-55.26
615.3981,-54.04
615.4981,-53.0
615.5981,-54.69
615.6981,-55.07
615.7981,-56.11
615.8981,-55.64
615.9981,-54.79
616.0981,-56.67
616.1981,-55.54
616.2981,-55.35
616.3981,-57.05
616.4981,-57.71
616.5981,-56.29
616.6981,-55.45
616.7981,-55.07
616.8981,-55.26
616.9981,-55.45
617.0981,-55.45
617.1981,-55.73
617.2981,-57.14
617.3981,-57.42
617.4981,-56.67
617.5981,-57.05
617.6981,-55.07
617.7981,-53.75
617.8981,-55.92
617.9981,-57.89
618.0981,-56.2
618.1981,-56.29
618.2981,-55.64
618.3981,-54.32
618.4981,-54.22
618.5981,-55.17
618.6981,-56.29
618.7981,-55.54
618.8981,-55.82
618.9981,-56.11
619.0981,-55.07
619.1981,-55.17
619.2981,-55.26
619.3981,-56.2
619.4981,-54.88
619.5981,-55.35
619.6981,-55.26
619.7981,-54.51
619.8981,-53.57
619.9981,-53.85
620.0980999999999,-53.57
620.1981000000001,-54.79
620.2981,-54.6
620.3981,-53.19
620.4981,-54.51
620.5980999999999,-55.73
620.6981000000001,-54.32
620.7981,-55.54
620.8981,-56.58
620.9981,-56.58
621.0980999999999,-56.86
621.1981000000001,-55.92
621.2981,-54.79
621.3981,-54.69
621.4981,-55.82
621.5980999999999,-55.54
621.6981000000001,-55.54
621.7981,-56.58
621.8981,-56.2
621.9981,-56.2
622.0980999999999,-55.64
622.1981000000001,-55.73
622.2981,-56.48
622.3981,-55.17
622.4981,-55.54
622.5980999999999,-56.2
622.6981000000001,-55.64
622.7981,-55.45
622.8981,-54.79
622.9981,-55.07
623.0980999999999,-55.45
623.1981000000001,-54.41
623.2981,-54.22
623.3981,-53.94
623.4981,-54.98
623.5980999999999,-54.6
623.6981000000001,-54.04
623.7981,-55.26
623.8981,-55.64
623.9981,-55.64
624.0980999999999,-55.26
624.1981000000001,-53.66
624.2981,-53.75
624.3981,-54.51
624.4981,-55.73
624.5980999999999,-55.54
624.6981000000001,-54.98
624.7981,-56.48
624.8981,-56.67
624.9981,-56.86
625.0980999999999,-54.04
625.1981000000001,-54.88
625.2981,-56.48
625.3981,-55.64
625.4981,-54.88
625.5980999999999,-54.98
625.6981000000001,-55.82
625.7981,-55.26
625.8981,-55.92
625.9981,-56.2
626.0980999999999,-57.24
626.1981000000001,-55.54
626.2981,-57.14
626.3981,-56.95
626.4981,-55.45
626.5980999999999,-54.51
626.6981000000001,-54.79
626.7981,-53.94
626.8981,-54.32
626.9981,-56.01
627.0980999999999,-54.98
627.1981000000001,-54.79
627.2981,-55.26
627.3981,-56.48
627.4981,-56.2
627.5980999999999,-56.39
627.6981000000001,-56.2
627.7981,-55.73
627.8981,-55.54
627.9981,-54.88
628.0980999999999,-55.64
628.1981000000001,-53.85
628.2981,-53.19
628.3981,-54.13
628.4981,-55.35
628.5980999999999,-54.69
628.6981000000001,-54.04
628.7981,-53.57
628.8981,-55.07
628.9981,-55.35
629.0980999999999,-53.85
629.1981000000001,-54.41
629.2981,-55.26
629.3981,-55.73
629.4981,-53.19
629.5980999999999,-53.47
629.6981000000001,-55.64
629.7981,-56.48
629.8981,-56.11
629.9981,-56.01
630.0980999999999,-54.98
630.1981000000001,-54.41
630.2981,-55.07
630.3981,-55.45
630.4981,-56.67
630.5980999999999,-57.42
630.6981000000001,-56.48
630.7981,-55.26
630.8981,-55.17
630.9981,-55.26
631.0980999999999,-55.35
631.1981000000001,-55.35
631.2981,-53.94
631.3981,-54.41
631.4981,-54.69
631.5980999999999,-54.69
631.6981000000001,-54.69
631.7981,-53.57
631.8981,-53.57
631.9981,-55.35
632.0980999999999,-54.04
632.1981000000001,-55.17
632.2981,-54.41
632.3981,-54.32
632.4981,-54.51
632.5980999999999,-55.92
632.6981000000001,-56.01
632.7981,-55.45
632.8981,-56.95
632.9981,-57.14
633.0980999999999,-56.01
633.1981000000001,-54.41
633.2981,-54.32
633.3981,-54.6
633.4981,-56.11
633.5980999999999,-56.11
633.6981000000001,-55.54
633.7981,-54.79
633.8981,-55.35
633.9981,-54.88
634.0980999999999,-54.51
634.1981000000001,-56.11
634.2981,-56.2
634.3981,-55.17
634.4981,-54.13
634.5980999999999,-53.66
634.6981000000001,-54.69
634.7981,-54.41
634.8981,-55.26
634.9981,-55.45
635.0980999999999,-55.17
635.1981000000001,-54.32
635.2981,-55.17
635.3981,-55.26
635.4981,-55.45
635.5980999999999,-54.41
635.6981000000001,-55.17
635.7981,-55.45
635.8981,-55.73
635.9981,-56.2
636.0980999999999,-56.11
636.1981000000001,-55.64
636.2981,-56.11
636.3981,-54.98
636.4981,-54.79
636.5980999999999,-54.32
636.6981000000001,-53.47
636.7981,-54.6
636.8981,-54.41
636.9981,-55.26
637.0980999999999,-55.07
637.1981000000001,-55.35
637.2981,-54.98
637.3981,-54.98
637.4981,-54.88
637.5980999999999,-55.35
637.6981000000001,-54.51
637.7981,-55.45
637.8981,-54.51
637.9981,-53.38
638.0980999999999,-54.32
638.1981000000001,-55.64
638.2981,-56.2
638.3981,-56.29
638.4981,-54.88
638.5980999999999,-53.75
638.6981000000001,-54.13
638.7981,-54.41
638.8981,-54.88
638.9981,-55.26
639.0980999999999,-53.66
639.1981000000001,-53.38
639.2981,-54.69
639.3981,-54.88
639.4981,-54.32
639.5980999999999,-54.98
639.6981000000001,-54.51
639.7981,-53.85
639.8981,-53.85
639.9981,-54.98
640.0980999999999,-54.13
640.1981000000001,-53.47
640.2981,-53.66
640.3981,-55.54
640.4981,-54.88
640.5980999999999,-54.79
640.6981000000001,-54.32
640.7981,-55.73
640.8981,-55.17
640.9981,-55.17
641.0980999999999,-54.69
641.1981000000001,-54.69
641.2981,-54.13
641.3981,-54.32
641.4981,-55.64
641.5980999999999,-55.92
641.6981000000001,-54.98
641.7981,-54.51
641.8981,-54.51
641.9981,-56.01
642.0980999999999,-55.45
642.1981000000001,-54.51
642.2981,-54.6
642.3981,-55.35
642.4981,-54.98
642.5980999999999,-54.22
642.6981000000001,-54.6
642.7981,-54.32
642.8981,-54.13
642.9981,-54.88
643.0980999999999,-54.69
643.1981000000001,-53.85
643.2981,-55.64
643.3981,-56.2
643.4981,-54.69
643.5980999999999,-55.07
643.6981000000001,-56.48
643.7981,-56.39
643.8981,-56.48
643.9981,-57.24
644.0980999999999,-55.35
644.1981000000001,-54.51
644.2981,-55.73
644.3981,-56.29
644.4981,-54.6
644.5980999999999,-53.0
644.6981000000001,-54.13
644.7981,-54.41
644.8981,-54.22
644.9981,-54.13
645.0980999999999,-53.66
645.1981000000001,-53.75
645.2981,-54.98
645.3981,-55.26
645.4981,-56.11
645.5980999999999,-55.07
645.6981000000001,-54.69
645.7981,-54.88
645.8981,-54.98
645.9981,-53.66
646.0980999999999,-54.88
646.1981000000001,-54.32
646.2981,-54.41
646.3981,-55.35
646.4981,-54.22
646.5980999999999,-54.13
646.6981000000001,-55.73
646.7981,-55.92
646.8981,-55.17
646.9981,-55.17
647.0980999999999,-55.73
647.1981000000001,-54.98
647.2981,-55.17
647.3981,-55.35
647.4981,-53.57
647.5980999999999,-52.53
647.6981000000001,-52.72
647.7981,-53.09
647.8981,-53.75
647.9981,-54.13
648.0980999999999,-54.6
648.1981000000001,-53.66
648.2981,-53.57
648.3981,-54.32
648.4981,-54.13
648.5980999999999,-53.75
648.6981000000001,-54.6
648.7981,-55.92
648.8981,-54.69
648.9981,-54.98
649.0980999999999,-55.92
649.1981000000001,-56.2
649.2981,-56.77
649.3981,-55.35
649.4981,-54.41
649.5980999999999,-54.69
649.6981000000001,-54.04
649.7981,-54.13
649.8981,-55.07
649.9981,-56.11
650.0980999999999,-56.2
650.1981000000001,-56.58
650.2981,-57.33
650.3981,-57.61
650.4981,-56.77
650.5980999999999,-56.29
650.6981000000001,-54.69
650.7981,-55.17
650.8981,-54.69
650.9981,-55.45
651.0980999999999,-53.09
651.1981000000001,-54.22
651.2981,-55.73
651.3981,-54.69
651.4981,-54.88
651.5980999999999,-54.51
651.6981000000001,-55.73
651.7981,-56.29
651.8981,-55.17
651.9981,-54.13
652.0980999999999,-54.88
652.1981000000001,-56.01
652.2981,-56.11
652.3981,-55.26
652.4981,-53.94
652.5980999999999,-54.41
652.6981000000001,-55.17
652.7981,-56.2
652.8981,-55.54
652.9981,-54.04
653.0980999999999,-54.13
653.1981000000001,-55.64
653.2981,-56.29
653.3981,-57.24
653.4981,-54.98
653.5980999999999,-54.98
653.6981000000001,-55.54
653.7981,-55.54
653.8981,-55.45
653.9981,-54.6
654.0980999999999,-54.22
654.1981000000001,-55.45
654.2981,-55.54
654.3981,-53.28
654.4981,-53.66
654.5980999999999,-53.28
654.6981000000001,-54.51
654.7981,-55.45
654.8981,-56.11
654.9981,-55.73
655.0980999999999,-54.88
655.1981000000001,-55.82
655.2981,-56.11
655.3981,-55.73
655.4981,-54.13
655.5980999999999,-53.28
655.6981000000001,-55.26
655.7981,-56.11
655.8981,-55.45
655.9981,-55.82
656.0980999999999,-55.35
656.1981000000001,-54.79
656.2981,-55.64
656.3981,-55.26
656.4981,-54.41
656.5980999999999,-55.54
656.6981000000001,-54.98
656.7981,-55.82
656.8981,-57.05
656.9981,-55.64
657.0980999999999,-54.98
657.1981000000001,-55.64
657.2981,-55.54
657.3981,-56.2
657.4981,-56.2
657.5980999999999,-56.48
657.6981000000001,-56.39
657.7981,-55.73
657.8981,-56.67
657.9981,-55.82
658.0980999999999,-55.35
658.1981000000001,-55.64
658.2981,-55.64
658.3981,-55.54
658.4981,-55.17
658.5980999999999,-54.69
658.6981000000001,-55.07
658.7981,-56.95
658.8981,-55.82
658.9981,-53.85
659.0980999999999,-55.17
659.1981000000001,-54.98
659.2981,-55.45
659.3981,-55.54
659.4981,-54.04
659.5980999999999,-54.98
659.6981000000001,-53.57
659.7981,-53.85
659.8981,-54.04
659.9981,-54.32
660.0980999999999,-55.82
660.1981000000001,-57.24
660.2981,-55.07
660.3981,-55.26
660.4981,-56.86
660.5980999999999,-57.42
660.6981000000001,-55.82
660.7981,-56.58
660.8981,-56.58
660.9981,-54.6
661.0980999999999,-54.79
661.1981000000001,-56.29
661.2981,-57.24
661.3981,-56.2
661.4981,-55.73
661.5980999999999,-55.45
661.6981000000001,-54.79
661.7981,-55.64
661.8981,-55.64
661.9981,-54.98
662.0980999999999,-55.73
662.1981000000001,-55.07
662.2981,-55.26
662.3981,-56.67
662.4981,-57.14
662.5980999999999,-56.86
662.6981000000001,-55.07
662.7981,-55.54
662.8981,-56.48
662.9981,-55.64
663.0980999999999,-56.11
663.1981000000001,-56.86
663.2981,-57.71
663.3981,-57.8
663.4981,-56.77
663.5980999999999,-56.67
663.6981000000001,-56.11
663.7981,-56.48
663.8981,-55.07
663.9981,-53.85
664.0980999999999,-53.66
664.1981000000001,-54.6
664.2981,-55.45
664.3981,-54.41
664.4981,-54.98
664.5980999999999,-56.01
664.6981000000001,-55.73
664.7981,-55.82
664.8981,-55.07
664.9981,-55.54
665.0980999999999,-56.77
665.1981000000001,-56.67
665.2981,-57.24
665.3981,-56.67
665.4981,-56.86
665.5980999999999,-54.69
665.6981000000001,-54.41
665.7981,-55.35
665.8981,-55.73
665.9981,-57.24
666.0980999999999,-57.33
666.1981000000001,-56.48
666.2981,-56.11
666.3981,-55.17
666.4981,-57.14
666.5980999999999,-56.86
666.6981000000001,-56.11
666.7981,-56.01
666.8981,-56.86
666.9981,-54.69
667.0980999999999,-54.6
667.1981000000001,-55.54
667.2981,-56.77
667.3981,-56.11
667.4981,-54.69
667.5980999999999,-55.45
667.6981000000001,-56.77
667.7981,-56.48
667.8981,-55.73
667.9981,-56.48
668.0980999999999,-55.64
668.1981000000001,-56.67
668.2981,-56.11
668.3981,-55.92
668.4981,-54.69
668.5980999999999,-55.17
668.6981000000001,-56.39
668.7981,-56.95
668.8981,-56.86
668.9981,-57.05
669.0980999999999,-56.67
669.1981000000001,-57.33
669.2981,-56.86
669.3981,-56.67
669.4981,-56.29
669.5980999999999,-56.67
669.6981000000001,-56.77
669.7981,-56.48
669.8981,-58.18
669.9981,-57.71
670.0980999999999,-57.52
670.1981000000001,-56.39
670.2981,-56.95
670.3981,-56.86
670.4981,-55.64
670.5980999999999,-55.45
670.6981000000001,-55.92
670.7981,-58.46
670.8981,-56.95
670.9981,-56.11
671.0980999999999,-56.01
671.1981000000001,-57.24
671.2981,-57.71
671.3981,-57.89
671.4981,-56.48
671.5980999999999,-54.98
671.6981000000001,-54.6
671.7981,-56.2
671.8981,-56.67
671.9981,-55.35
672.0980999999999,-55.17
672.1981000000001,-54.69
672.2981,-55.07
672.3981,-55.64
672.4981,-55.17
672.5980999999999,-54.88
672.6981000000001,-55.26
672.7981,-55.82
672.8981,-56.67
672.9981,-56.29
673.0980999999999,-56.11
673.1981000000001,-55.45
673.2981,-56.48
673.3981,-58.18
673.4981,-56.77
673.5980999999999,-56.48
673.6981000000001,-57.71
673.7981,-57.05
673.8981,-57.42
673.9981,-58.08
674.0980999999999,-58.37
674.1981000000001,-57.89
674.2981,-57.8
674.3981,-56.95
674.4981,-56.39
674.5980999999999,-56.95
674.6981000000001,-57.52
674.7981,-57.71
674.8981,-56.95
674.9981,-57.05
675.0980999999999,-56.86
675.1981000000001,-56.48
675.2981,-56.58
675.3981,-57.61
675.4981,-57.42
675.5980999999999,-55.07
675.6981000000001,-55.07
675.7981,-55.45
675.8981,-55.64
675.9981,-56.58
676.0980999999999,-56.86
676.1981000000001,-57.24
676.2981,-55.82
676.3981,-55.73
676.4981,-56.29
676.5980999999999,-56.01
676.6981000000001,-56.2
676.7981,-55.92
676.8981,-57.42
676.9981,-58.27
677.0980999999999,-57.52
677.1981000000001,-55.92
677.2981,-56.11
677.3981,-57.8
677.4981,-57.99
677.5980999999999,-56.67
677.6981000000001,-55.92
677.7981,-56.86
677.8981,-55.82
677.9981,-55.64
678.0980999999999,-56.58
678.1981000000001,-55.82
678.2981,-56.48
678.3981,-57.33
678.4981,-57.05
678.5980999999999,-57.24
678.6981000000001,-57.8
678.7981,-57.99
678.8981,-56.86
678.9981,-56.95
679.0980999999999,-56.39
679.1981000000001,-56.67
679.2981,-57.71
679.3981,-57.05
679.4981,-56.67
679.5980999999999,-57.61
679.6981000000001,-56.86
679.7981,-56.2
679.8981,-56.29
679.9981,-56.95
680.0980999999999,-56.58
680.1981000000001,-56.77
680.2981,-56.11
680.3981,-56.58
680.4981,-56.2
680.5980999999999,-56.01
680.6981000000001,-55.73
680.7981,-56.29
680.8981,-56.77
680.9981,-56.48
681.0980999999999,-57.99
681.1981000000001,-57.99
681.2981,-55.82
681.3981,-56.95
681.4981,-57.33
681.5980999999999,-58.84
681.6981000000001,-58.65
681.7981,-57.99
681.8981,-57.24
681.9981,-57.42
682.0980999999999,-57.71
682.1981000000001,-58.93
682.2981,-58.18
682.3981,-56.77
682.4981,-58.18
682.5980999999999,-58.65
682.6981000000001,-57.61
682.7981,-57.33
682.8981,-57.89
682.9981,-57.89
