Frequency(MHz),Power(dBmV/100kHz)_20260203_084000
107.8981,-82.53
107.9981,-51.66
108.0981,-53.92
108.1981,-54.39
108.2981,-54.67
108.3981,-52.98
108.4981,-53.26
108.5981,-53.45
108.6981,-53.54
108.7981,-53.54
108.8981,-53.64
108.9981,-53.54
109.0981,-52.13
109.1981,-51.85
109.2981,-52.79
109.3981,-54.01
109.4981,-53.45
109.5981,-53.17
109.6981,-53.92
109.7981,-52.79
109.8981,-52.69
109.9981,-53.73
110.0981,-54.01
110.1981,-54.2
110.2981,-54.29
110.3981,-53.35
110.4981,-53.17
110.5981,-53.54
110.6981,-53.45
110.7981,-54.29
110.8981,-53.54
110.9981,-51.75
111.0981,-52.6
111.1981,-51.09
111.2981,-51.47
111.3981,-53.92
111.4981,-55.05
111.5981,-53.35
111.6981,-51.19
111.7981,-51.38
111.8981,-51.28
111.9981,-52.79
112.0981,-54.11
112.1981,-54.77
112.2981,-53.35
112.3981,-52.22
112.4981,-53.07
112.5981,-53.92
112.6981,-53.54
112.7981,-54.48
112.8981,-53.73
112.9981,-51.47
113.0981,-51.09
113.1981,-52.88
113.2981,-56.18
113.3981,-55.05
113.4981,-53.82
113.5981,-52.79
113.6981,-51.75
113.7981,-50.91
113.8981,-51.94
113.9981,-52.98
114.0981,-55.24
114.1981,-55.52
114.2981,-54.2
114.3981,-51.75
114.4981,-51.19
114.5981,-53.45
114.6981,-54.2
114.7981,-54.11
114.8981,-52.79
114.9981,-51.57
115.0981,-51.75
115.1981,-53.26
115.2981,-54.48
115.3981,-53.73
115.4981,-54.58
115.5981,-52.41
115.6981,-51.75
115.7981,-52.6
115.8981,-53.35
115.9981,-54.58
116.0981,-53.73
116.1981,-53.35
116.2981,-53.26
116.3981,-53.07
116.4981,-53.35
116.5981,-54.2
116.6981,-54.29
116.7981,-52.69
116.8981,-51.94
116.9981,-52.04
117.0981,-52.6
117.1981,-52.22
117.2981,-54.48
117.3981,-55.52
117.4981,-54.29
117.5981,-53.07
117.6981,-51.47
117.7981,-51.57
117.8981,-53.07
117.9981,-55.14
118.0981,-55.42
118.1981,-54.86
118.2981,-52.41
118.3981,-51.47
118.4981,-52.22
118.5981,-54.39
118.6981,-54.2
118.7981,-53.17
118.8981,-51.94
118.9981,-51.66
119.0981,-52.22
119.1981,-54.01
119.2981,-55.14
119.3981,-55.71
119.4981,-54.48
119.5981,-50.91
119.6981,-51.94
119.7981,-52.88
119.8981,-53.17
119.9981,-54.29
120.0981,-54.86
120.1981,-52.98
120.2981,-52.79
120.3981,-52.32
120.4981,-52.22
120.5981,-54.48
120.6981,-53.35
120.7981,-52.04
120.8981,-52.04
120.9981,-52.22
121.0981,-52.69
121.1981,-53.64
121.2981,-56.74
121.3981,-56.37
121.4981,-53.17
121.5981,-51.57
121.6981,-52.04
121.7981,-52.6
121.8981,-55.14
121.9981,-54.2
122.0981,-52.98
122.1981,-53.17
122.2981,-53.17
122.3981,-51.94
122.4981,-53.17
122.5981,-53.45
122.6981,-51.75
122.7981,-52.51
122.8981,-53.17
122.9981,-52.69
123.0981,-52.69
123.1981,-54.95
123.2981,-55.42
123.3981,-54.39
123.4981,-52.79
123.5981,-52.69
123.6981,-51.75
123.7981,-51.66
123.8981,-53.54
123.9981,-53.54
124.0981,-52.13
124.1981,-51.19
124.2981,-53.82
124.3981,-54.29
124.4981,-54.48
124.5981,-54.39
124.6981,-52.69
124.7981,-52.32
124.8981,-51.09
124.9981,-51.19
125.0981,-51.66
125.1981,-53.64
125.2981,-55.14
125.3981,-52.88
125.4981,-52.88
125.5981,-53.17
125.6981,-53.07
125.7981,-54.86
125.8981,-54.2
125.9981,-52.88
126.0981,-52.79
126.1981,-52.6
126.2981,-52.13
126.3981,-54.48
126.4981,-55.05
126.5981,-52.79
126.6981,-51.47
126.7981,-51.09
126.8981,-51.0
126.9981,-51.28
127.0981,-52.98
127.1981,-54.29
127.2981,-55.05
127.3981,-52.6
127.4981,-52.69
127.5981,-53.73
127.6981,-53.07
127.7981,-55.24
127.8981,-54.48
127.9981,-52.04
128.0981,-52.88
128.1981,-52.69
128.2981,-53.45
128.3981,-54.67
128.4981,-54.48
128.5981,-53.17
128.6981,-51.47
128.7981,-50.81
128.8981,-51.57
128.9981,-54.01
129.0981,-55.33
129.1981,-54.67
129.2981,-52.22
129.3981,-51.57
129.4981,-52.04
129.5981,-52.41
129.6981,-52.69
129.7981,-53.45
129.8981,-52.69
129.9981,-51.0
130.0981,-50.62
130.1981,-51.28
130.2981,-53.45
130.3981,-54.29
130.4981,-55.24
130.5981,-53.26
130.6981,-52.98
130.7981,-51.66
130.8981,-51.19
130.9981,-52.69
131.0981,-52.88
131.1981,-53.35
131.2981,-53.54
131.3981,-52.79
131.4981,-53.17
131.5981,-55.33
131.6981,-56.27
131.7981,-54.67
131.8981,-53.45
131.9981,-53.07
132.0981,-52.04
132.1981,-53.73
132.2981,-55.71
132.3981,-56.08
132.4981,-52.98
132.5981,-52.51
132.6981,-52.69
132.7981,-51.19
132.8981,-51.75
132.9981,-53.26
133.0981,-53.54
133.1981,-52.69
133.2981,-52.22
133.3981,-52.32
133.4981,-53.17
133.5981,-53.35
133.6981,-53.17
133.7981,-52.88
133.8981,-52.13
133.9981,-51.57
134.0981,-52.69
134.1981,-52.98
134.2981,-55.05
134.3981,-55.14
134.4981,-53.35
134.5981,-51.28
134.6981,-51.0
134.7981,-52.13
134.8981,-54.29
134.9981,-54.86
135.0981,-53.54
135.1981,-53.82
135.2981,-53.82
135.3981,-53.64
135.4981,-55.14
135.5981,-56.74
135.6981,-53.54
135.7981,-52.69
135.8981,-52.88
135.9981,-52.79
136.0981,-52.04
136.1981,-53.73
136.2981,-56.65
136.3981,-54.48
136.4981,-53.45
136.5981,-52.04
136.6981,-52.88
136.7981,-54.58
136.8981,-55.05
136.9981,-54.86
137.0981,-53.54
137.1981,-50.91
137.2981,-51.85
137.3981,-54.67
137.4981,-55.99
137.5981,-57.12
137.6981,-55.61
137.7981,-52.04
137.8981,-51.09
137.9981,-52.04
138.0981,-53.35
138.1981,-53.35
138.2981,-53.64
138.3981,-53.35
138.4981,-52.79
138.5981,-52.6
138.6981,-54.01
138.7981,-54.29
138.8981,-54.48
138.9981,-54.2
139.0981,-53.07
139.1981,-51.19
139.2981,-51.38
139.3981,-54.2
139.4981,-55.89
139.5981,-57.02
139.6981,-54.77
139.7981,-53.35
139.8981,-52.98
139.9981,-51.94
140.0981,-53.07
140.1981,-54.11
140.2981,-55.89
140.3981,-54.67
140.4981,-53.45
140.5981,-54.48
140.6981,-54.11
140.7981,-54.48
140.8981,-53.92
140.9981,-52.88
141.0981,-53.17
141.1981,-51.75
141.2981,-51.19
141.3981,-53.35
141.4981,-54.48
141.5981,-54.67
141.6981,-52.32
141.7981,-52.32
141.8981,-52.04
141.9981,-51.94
142.0981,-53.82
142.1981,-55.42
142.2981,-54.29
142.3981,-53.07
142.4981,-52.22
142.5981,-52.22
142.6981,-53.64
142.7981,-56.37
142.8981,-54.29
142.9981,-52.51
143.0981,-51.75
143.1981,-51.75
143.2981,-52.69
143.3981,-52.98
143.4981,-54.67
143.5981,-54.01
143.6981,-52.51
143.7981,-51.75
143.8981,-51.66
143.9981,-53.64
144.0981,-53.82
144.1981,-54.77
144.2981,-53.64
144.3981,-51.47
144.4981,-52.13
144.5981,-53.07
144.6981,-53.82
144.7981,-54.01
144.8981,-53.92
144.9981,-51.85
145.0981,-51.94
145.1981,-53.54
145.2981,-54.2
145.3981,-54.67
145.4981,-56.08
145.5981,-53.82
145.6981,-52.98
145.7981,-51.66
145.8981,-53.17
145.9981,-53.17
146.0981,-53.64
146.1981,-52.88
146.2981,-53.45
146.3981,-53.73
146.4981,-53.45
146.5981,-53.82
146.6981,-54.86
146.7981,-55.52
146.8981,-54.48
146.9981,-52.13
147.0981,-50.81
147.1981,-50.91
147.2981,-52.88
147.3981,-53.45
147.4981,-53.92
147.5981,-53.64
147.6981,-52.69
147.7981,-53.35
147.8981,-53.64
147.9981,-55.61
148.0981,-56.18
148.1981,-54.01
148.2981,-52.22
148.3981,-52.13
148.4981,-52.41
148.5981,-54.11
148.6981,-56.74
148.7981,-54.95
148.8981,-51.94
148.9981,-49.97
149.0981,-50.53
149.1981,-52.04
149.2981,-53.54
149.3981,-54.11
149.4981,-52.41
149.5981,-51.94
149.6981,-50.72
149.7981,-51.57
149.8981,-53.92
149.9981,-54.95
150.0981,-52.98
150.1981,-53.35
150.2981,-54.29
150.3981,-52.22
150.4981,-52.22
150.5981,-55.14
150.6981,-56.08
150.7981,-53.92
150.8981,-51.75
150.9981,-51.28
151.0981,-52.51
151.1981,-54.39
151.2981,-54.95
151.3981,-55.89
151.4981,-54.01
151.5981,-52.32
151.6981,-52.22
151.7981,-52.79
151.8981,-54.2
151.9981,-54.67
152.0981,-53.82
152.1981,-52.41
152.2981,-51.38
152.3981,-51.47
152.4981,-53.54
152.5981,-53.64
152.6981,-53.35
152.7981,-52.13
152.8981,-51.57
152.9981,-50.15
153.0981,-51.57
153.1981,-54.29
153.2981,-56.37
153.3981,-55.33
153.4981,-52.88
153.5981,-51.75
153.6981,-53.45
153.7981,-54.39
153.8981,-54.77
153.9981,-55.8
154.0981,-52.51
154.1981,-51.94
154.2981,-52.13
154.3981,-53.64
154.4981,-55.89
154.5981,-57.02
154.6981,-55.24
154.7981,-54.48
154.8981,-53.26
154.9981,-52.41
155.0981,-53.07
155.1981,-54.58
155.2981,-55.42
155.3981,-54.11
155.4981,-53.07
155.5981,-53.07
155.6981,-52.41
155.7981,-54.29
155.8981,-55.24
155.9981,-54.29
156.0981,-52.69
156.1981,-51.38
156.2981,-51.57
156.3981,-52.32
156.4981,-55.61
156.5981,-55.33
156.6981,-54.01
156.7981,-52.04
156.8981,-51.47
156.9981,-53.82
157.0981,-55.05
157.1981,-55.24
157.2981,-55.05
157.3981,-52.32
157.4981,-51.09
157.5981,-52.32
157.6981,-53.92
157.7981,-54.39
157.8981,-56.18
157.9981,-53.92
158.0981,-51.75
158.1981,-52.51
158.2981,-51.94
158.3981,-54.01
158.4981,-55.71
158.5981,-54.39
158.6981,-53.45
158.7981,-52.6
158.8981,-52.69
158.9981,-53.54
159.0981,-54.86
159.1981,-55.52
159.2981,-56.27
159.3981,-53.26
159.4981,-52.51
159.5981,-54.39
159.6981,-56.08
159.7981,-56.46
159.8981,-54.2
159.9981,-52.13
160.0981,-52.88
160.1981,-54.29
160.2981,-54.67
160.3981,-55.89
160.4981,-56.93
160.5981,-55.61
160.6981,-52.6
160.7981,-52.51
160.8981,-51.66
160.9981,-52.13
161.0981,-53.64
161.1981,-54.77
161.2981,-53.35
161.3981,-52.51
161.4981,-52.51
161.5981,-53.64
161.6981,-56.08
161.7981,-55.24
161.8981,-53.07
161.9981,-52.51
162.0981,-52.88
162.1981,-51.57
162.2981,-52.51
162.3981,-54.39
162.4981,-55.24
162.5981,-54.29
162.6981,-53.07
162.7981,-52.6
162.8981,-54.11
162.9981,-54.29
163.0981,-54.01
163.1981,-53.35
163.2981,-52.41
163.3981,-53.54
163.4981,-53.45
163.5981,-54.11
163.6981,-55.99
163.7981,-55.05
163.8981,-51.94
163.9981,-51.28
164.0981,-52.51
164.1981,-53.64
164.2981,-53.54
164.3981,-55.71
164.4981,-55.14
164.5981,-52.69
164.6981,-52.04
164.7981,-52.79
164.8981,-53.73
164.9981,-55.33
165.0981,-54.48
165.1981,-53.35
165.2981,-52.04
165.3981,-50.91
165.4981,-52.13
165.5981,-53.82
165.6981,-55.24
165.7981,-54.67
165.8981,-54.58
165.9981,-53.64
166.0981,-54.11
166.1981,-52.88
166.2981,-54.86
166.3981,-54.95
166.4981,-54.11
166.5981,-52.04
166.6981,-52.32
166.7981,-55.42
166.8981,-56.46
166.9981,-56.65
167.0981,-53.82
167.1981,-52.41
167.2981,-51.75
167.3981,-51.75
167.4981,-54.01
167.5981,-56.27
167.6981,-56.37
167.7981,-54.29
167.8981,-52.41
167.9981,-52.41
168.0981,-53.07
168.1981,-54.29
168.2981,-55.99
168.3981,-53.54
168.4981,-51.47
168.5981,-50.72
168.6981,-51.09
168.7981,-53.26
168.8981,-54.58
168.9981,-55.33
169.0981,-52.41
169.1981,-51.57
169.2981,-51.38
169.3981,-51.66
169.4981,-55.05
169.5981,-54.95
169.6981,-55.52
169.7981,-54.48
169.8981,-52.6
169.9981,-51.47
170.0981,-53.07
170.1981,-55.89
170.2981,-55.99
170.3981,-53.26
170.4981,-52.6
170.5981,-53.26
170.6981,-52.69
170.7981,-53.26
170.8981,-54.2
170.9981,-54.39
171.0981,-51.85
171.1981,-50.44
171.2981,-51.94
171.3981,-52.79
171.4981,-54.01
171.5981,-54.48
171.6981,-53.92
171.7981,-52.22
171.8981,-51.28
171.9981,-51.94
172.0981,-53.92
172.1981,-55.71
172.2981,-54.2
172.3981,-51.94
172.4981,-51.09
172.5981,-51.47
172.6981,-51.19
172.7981,-53.73
172.8981,-55.05
172.9981,-52.69
173.0981,-50.91
173.1981,-50.91
173.2981,-52.51
173.3981,-54.39
173.4981,-56.18
173.5981,-55.89
173.6981,-55.05
173.7981,-52.88
173.8981,-52.13
173.9981,-52.6
174.0981,-55.14
174.1981,-55.89
174.2981,-53.73
174.3981,-51.28
174.4981,-51.09
174.5981,-51.19
174.6981,-54.58
174.7981,-55.99
174.8981,-53.82
174.9981,-51.85
175.0981,-50.62
175.1981,-50.25
175.2981,-51.85
175.3981,-54.11
175.4981,-55.71
175.5981,-54.58
175.6981,-52.04
175.7981,-51.85
175.8981,-52.88
175.9981,-53.35
176.0981,-53.82
176.1981,-53.64
176.2981,-51.75
176.3981,-51.28
176.4981,-52.13
176.5981,-52.79
176.6981,-54.67
176.7981,-55.52
176.8981,-54.39
176.9981,-52.13
177.0981,-51.38
177.1981,-50.15
177.2981,-53.07
177.3981,-56.65
177.4981,-56.65
177.5981,-55.42
177.6981,-54.39
177.7981,-53.82
177.8981,-53.73
177.9981,-55.05
178.0981,-55.99
178.1981,-54.77
178.2981,-52.98
178.3981,-51.57
178.4981,-51.94
178.5981,-53.82
178.6981,-55.71
178.7981,-55.42
178.8981,-52.41
178.9981,-52.04
179.0981,-52.22
179.1981,-52.79
179.2981,-54.11
179.3981,-56.27
179.4981,-55.52
179.5981,-52.69
179.6981,-52.69
179.7981,-52.41
179.8981,-53.73
179.9981,-54.67
180.0981,-55.61
180.1981,-53.54
180.2981,-52.88
180.3981,-51.94
180.4981,-51.75
180.5981,-54.58
180.6981,-56.37
180.7981,-54.58
180.8981,-53.45
180.9981,-52.32
181.0981,-51.0
181.1981,-53.07
181.2981,-55.42
181.3981,-55.71
181.4981,-53.35
181.5981,-52.13
181.6981,-53.07
181.7981,-54.95
181.8981,-55.33
181.9981,-56.08
182.0981,-55.33
182.1981,-52.79
182.2981,-51.38
182.3981,-52.04
182.4981,-53.26
182.5981,-54.86
182.6981,-54.95
182.7981,-55.61
182.8981,-54.01
182.9981,-52.51
183.0981,-53.35
183.1981,-54.39
183.2981,-54.67
183.3981,-54.86
183.4981,-53.64
183.5981,-54.48
183.6981,-52.88
183.7981,-53.73
183.8981,-56.37
183.9981,-55.99
184.0981,-52.51
184.1981,-50.72
184.2981,-51.38
184.3981,-51.66
184.4981,-53.45
184.5981,-55.89
184.6981,-56.18
184.7981,-54.11
184.8981,-51.85
184.9981,-51.85
185.0981,-52.69
185.1981,-54.77
185.2981,-55.24
185.3981,-54.11
185.4981,-52.41
185.5981,-51.0
185.6981,-51.38
185.7981,-53.82
185.8981,-56.55
185.9981,-54.67
186.0981,-53.73
186.1981,-52.98
186.2981,-52.51
186.3981,-53.92
186.4981,-55.42
186.5981,-55.05
186.6981,-53.64
186.7981,-51.57
186.8981,-50.91
186.9981,-51.38
187.0981,-54.58
187.1981,-55.61
187.2981,-53.45
187.3981,-51.85
187.4981,-51.09
187.5981,-51.66
187.6981,-52.41
187.7981,-54.29
187.8981,-56.08
187.9981,-55.14
188.0981,-52.51
188.1981,-51.75
188.2981,-52.04
188.3981,-53.07
188.4981,-54.58
188.5981,-55.89
188.6981,-53.17
188.7981,-52.51
188.8981,-52.22
188.9981,-53.82
189.0981,-54.58
189.1981,-55.8
189.2981,-55.05
189.3981,-51.85
189.4981,-49.97
189.5981,-51.19
189.6981,-53.82
189.7981,-55.52
189.8981,-54.58
189.9981,-51.75
190.0981,-51.0
190.1981,-51.75
190.2981,-52.22
190.3981,-54.77
190.4981,-57.59
190.5981,-54.29
190.6981,-52.32
190.7981,-52.51
190.8981,-53.07
190.9981,-53.35
191.0981,-53.92
191.1981,-55.71
191.2981,-55.71
191.3981,-52.98
191.4981,-50.91
191.5981,-51.85
191.6981,-54.95
191.7981,-55.52
191.8981,-54.67
191.9981,-51.85
192.0981,-51.09
192.1981,-51.09
192.2981,-53.07
192.3981,-55.8
192.4981,-56.84
192.5981,-54.95
192.6981,-52.69
192.7981,-52.32
192.8981,-52.41
192.9981,-53.54
193.0981,-55.52
193.1981,-54.58
193.2981,-51.38
193.3981,-50.44
193.4981,-51.28
193.5981,-53.45
193.6981,-56.18
193.7981,-56.46
193.8981,-54.11
193.9981,-51.85
194.0981,-51.09
194.1981,-52.79
194.2981,-54.95
194.3981,-56.27
194.4981,-55.24
194.5981,-53.45
194.6981,-51.94
194.7981,-51.94
194.8981,-53.35
194.9981,-54.67
195.0981,-55.14
195.1981,-52.88
195.2981,-50.91
195.3981,-50.91
195.4981,-52.04
195.5981,-53.92
195.6981,-55.71
195.7981,-54.11
195.8981,-52.41
195.9981,-51.28
196.0981,-52.04
196.1981,-54.29
196.2981,-55.52
196.3981,-55.71
196.4981,-54.67
196.5981,-53.17
196.6981,-52.32
196.7981,-52.22
196.8981,-54.77
196.9981,-55.14
197.0981,-54.2
197.1981,-52.98
197.2981,-51.85
197.3981,-51.94
197.4981,-51.75
197.5981,-54.29
197.6981,-55.24
197.7981,-53.35
197.8981,-51.94
197.9981,-50.44
198.0981,-51.85
198.1981,-54.95
198.2981,-56.46
198.3981,-53.73
198.4981,-52.51
198.5981,-52.22
198.6981,-51.19
198.7981,-52.22
198.8981,-54.48
198.9981,-54.95
199.0981,-53.26
199.1981,-51.0
199.2981,-51.85
199.3981,-52.32
199.4981,-52.13
199.5981,-55.24
199.6981,-55.52
199.7981,-52.98
199.8981,-51.66
199.9981,-52.32
200.0981,-53.35
200.1981,-54.86
200.2981,-56.27
200.3981,-53.35
200.4981,-52.04
200.5981,-51.19
200.6981,-51.19
200.7981,-52.98
200.8981,-55.42
200.9981,-55.89
201.0981,-52.79
201.1981,-51.57
201.2981,-52.51
201.3981,-53.07
201.4981,-54.48
201.5981,-55.52
201.6981,-54.95
201.7981,-52.79
201.8981,-51.75
201.9981,-52.22
202.0981,-53.64
202.1981,-55.33
202.2981,-55.33
202.3981,-52.98
202.4981,-51.38
202.5981,-51.28
202.6981,-52.79
202.7981,-55.99
202.8981,-58.44
202.9981,-55.89
203.0981,-52.51
203.1981,-50.62
203.2981,-51.85
203.3981,-52.69
203.4981,-54.39
203.5981,-56.74
203.6981,-54.11
203.7981,-52.41
203.8981,-52.88
203.9981,-55.61
204.0981,-55.99
204.1981,-56.37
204.2981,-53.45
204.3981,-51.28
204.4981,-50.62
204.5981,-51.28
204.6981,-53.35
204.7981,-56.84
204.8981,-57.31
204.9981,-54.58
205.0981,-52.22
205.1981,-52.04
205.2981,-53.35
205.3981,-55.05
205.4981,-54.95
205.5981,-54.86
205.6981,-53.64
205.7981,-52.32
205.8981,-51.85
205.9981,-53.92
206.0981,-56.27
206.1981,-54.77
206.2981,-52.51
206.3981,-51.57
206.4981,-52.32
206.5981,-53.82
206.6981,-53.17
206.7981,-55.42
206.8981,-55.52
206.9981,-54.01
207.0981,-53.35
207.1981,-53.17
207.2981,-54.86
207.3981,-56.65
207.4981,-57.02
207.5981,-54.67
207.6981,-51.75
207.7981,-51.38
207.8981,-53.35
207.9981,-55.24
208.0981,-54.86
208.1981,-54.48
208.2981,-52.41
208.3981,-51.47
208.4981,-51.75
208.5981,-53.17
208.6981,-56.65
208.7981,-56.74
208.8981,-54.11
208.9981,-52.88
209.0981,-52.98
209.1981,-54.67
209.2981,-55.14
209.3981,-56.37
209.4981,-55.71
209.5981,-52.04
209.6981,-50.91
209.7981,-52.79
209.8981,-53.92
209.9981,-55.24
210.0981,-55.8
210.1981,-54.11
210.2981,-52.69
210.3981,-51.57
210.4981,-51.75
210.5981,-52.98
210.6981,-55.24
210.7981,-55.89
210.8981,-53.54
210.9981,-52.13
211.0981,-52.41
211.1981,-53.73
211.2981,-55.99
211.3981,-54.39
211.4981,-52.69
211.5981,-51.19
211.6981,-51.94
211.7981,-52.51
211.8981,-53.64
211.9981,-57.68
212.0981,-53.92
212.1981,-51.85
212.2981,-51.75
212.3981,-50.72
212.4981,-52.41
212.5981,-57.02
212.6981,-58.34
212.7981,-53.82
212.8981,-51.28
212.9981,-51.94
213.0981,-54.2
213.1981,-55.24
213.2981,-57.87
213.3981,-54.67
213.4981,-51.75
213.5981,-51.09
213.6981,-52.22
213.7981,-54.48
213.8981,-55.61
213.9981,-56.65
214.0981,-54.95
214.1981,-52.88
214.2981,-52.98
214.3981,-51.85
214.4981,-53.45
214.5981,-55.52
214.6981,-54.29
214.7981,-53.64
214.8981,-52.88
214.9981,-52.13
215.0981,-54.48
215.1981,-56.46
215.2981,-55.52
215.3981,-53.35
215.4981,-53.73
215.5981,-52.6
215.6981,-52.6
215.7981,-52.13
215.8981,-53.64
215.9981,-53.92
216.0981,-53.35
216.1981,-52.13
216.2981,-51.85
216.3981,-51.85
216.4981,-52.88
216.5981,-56.08
216.6981,-55.33
216.7981,-53.17
216.8981,-52.79
216.9981,-52.51
217.0981,-53.92
217.1981,-55.71
217.2981,-54.58
217.3981,-52.13
217.4981,-50.44
217.5981,-51.09
217.6981,-53.82
217.7981,-55.61
217.8981,-55.42
217.9981,-53.54
218.0981,-52.22
218.1981,-51.75
218.2981,-51.94
218.3981,-53.07
218.4981,-55.05
218.5981,-54.95
218.6981,-53.35
218.7981,-51.66
218.8981,-52.41
218.9981,-53.73
219.0981,-54.2
219.1981,-55.24
219.2981,-53.64
219.3981,-51.94
219.4981,-51.94
219.5981,-52.41
219.6981,-54.95
219.7981,-58.91
219.8981,-56.55
219.9981,-53.54
220.0981,-52.13
220.1981,-52.41
220.2981,-54.48
220.3981,-56.65
220.4981,-56.46
220.5981,-54.11
220.6981,-51.75
220.7981,-50.91
220.8981,-51.09
220.9981,-52.69
221.0981,-55.8
221.1981,-54.95
221.2981,-52.79
221.3981,-51.75
221.4981,-52.6
221.5981,-53.07
221.6981,-54.86
221.7981,-56.27
221.8981,-54.77
221.9981,-53.82
222.0981,-52.88
222.1981,-51.47
222.2981,-53.07
222.3981,-55.89
222.4981,-54.86
222.5981,-53.73
222.6981,-52.79
222.7981,-51.94
222.8981,-53.64
222.9981,-55.71
223.0981,-56.84
223.1981,-54.48
223.2981,-53.45
223.3981,-52.32
223.4981,-52.32
223.5981,-53.64
223.6981,-56.65
223.7981,-55.52
223.8981,-54.39
223.9981,-52.88
224.0981,-51.47
224.1981,-53.73
224.2981,-55.61
224.3981,-55.99
224.4981,-54.39
224.5981,-53.26
224.6981,-52.22
224.7981,-52.41
224.8981,-53.35
224.9981,-55.05
225.0981,-56.46
225.1981,-53.45
225.2981,-52.32
225.3981,-52.41
225.4981,-52.04
225.5981,-53.35
225.6981,-55.14
225.7981,-55.61
225.8981,-54.11
225.9981,-52.32
226.0981,-53.17
226.1981,-55.52
226.2981,-55.89
226.3981,-55.61
226.4981,-52.41
226.5981,-51.19
226.6981,-51.0
226.7981,-53.26
226.8981,-55.33
226.9981,-55.71
227.0981,-53.92
227.1981,-51.28
227.2981,-51.85
227.3981,-52.41
227.4981,-53.64
227.5981,-56.18
227.6981,-57.02
227.7981,-54.77
227.8981,-52.32
227.9981,-51.75
228.0981,-52.79
228.1981,-54.11
228.2981,-54.86
228.3981,-53.82
228.4981,-53.92
228.5981,-52.6
228.6981,-51.47
228.7981,-52.04
228.8981,-55.14
228.9981,-57.02
229.0981,-54.11
229.1981,-51.94
229.2981,-52.04
229.3981,-51.47
229.4981,-53.92
229.5981,-56.27
229.6981,-56.08
229.7981,-53.35
229.8981,-50.91
229.9981,-51.28
230.0981,-54.67
230.1981,-56.18
230.2981,-55.52
230.3981,-53.35
230.4981,-51.47
230.5981,-51.85
230.6981,-52.6
230.7981,-53.54
230.8981,-55.52
230.9981,-56.18
231.0981,-54.11
231.1981,-52.51
231.2981,-51.66
231.3981,-51.94
231.4981,-55.42
231.5981,-55.99
231.6981,-54.67
231.7981,-53.92
231.8981,-51.75
231.9981,-51.19
232.0981,-54.2
232.1981,-56.46
232.2981,-53.92
232.3981,-52.69
232.4981,-50.44
232.5981,-51.0
232.6981,-53.17
232.7981,-55.14
232.8981,-56.18
232.9981,-55.05
233.0981,-53.54
233.1981,-52.88
233.2981,-53.45
233.3981,-53.92
233.4981,-55.8
233.5981,-55.05
233.6981,-52.79
233.7981,-52.32
233.8981,-51.09
233.9981,-51.66
234.0981,-55.05
234.1981,-55.05
234.2981,-54.77
234.3981,-53.35
234.4981,-52.04
234.5981,-52.6
234.6981,-53.54
234.7981,-56.08
234.8981,-56.65
234.9981,-54.67
235.0981,-52.32
235.1981,-52.79
235.2981,-54.95
235.3981,-55.89
235.4981,-56.46
235.5981,-54.58
235.6981,-51.28
235.7981,-51.94
235.8981,-53.54
235.9981,-54.67
236.0981,-56.55
236.1981,-55.14
236.2981,-54.11
236.3981,-52.13
236.4981,-51.57
236.5981,-51.75
236.6981,-54.2
236.7981,-55.8
236.8981,-54.95
236.9981,-53.35
237.0981,-52.04
237.1981,-52.79
237.2981,-54.48
237.3981,-56.84
237.4981,-54.11
237.5981,-51.47
237.6981,-52.98
237.7981,-53.64
237.8981,-54.58
237.9981,-55.52
238.0981,-56.46
238.1981,-55.42
238.2981,-54.29
238.3981,-53.73
238.4981,-53.73
238.5981,-54.29
238.6981,-55.8
238.7981,-55.71
238.8981,-55.14
238.9981,-53.35
239.0981,-52.13
239.1981,-53.26
239.2981,-55.71
239.3981,-55.99
239.4981,-54.67
239.5981,-52.79
239.6981,-51.85
239.7981,-53.17
239.8981,-54.39
239.9981,-55.89
240.0981,-56.27
240.1981,-54.2
240.2981,-52.41
240.3981,-53.07
240.4981,-54.77
240.5981,-54.58
240.6981,-56.74
240.7981,-54.95
240.8981,-53.45
240.9981,-52.04
241.0981,-51.66
241.1981,-53.64
241.2981,-55.52
241.3981,-54.39
241.4981,-51.57
241.5981,-51.38
241.6981,-53.54
241.7981,-54.2
241.8981,-54.67
241.9981,-56.18
242.0981,-55.42
242.1981,-52.6
242.2981,-52.41
242.3981,-52.98
242.4981,-54.29
242.5981,-55.52
242.6981,-54.95
242.7981,-52.32
242.8981,-51.94
242.9981,-53.82
243.0981,-54.48
243.1981,-55.8
243.2981,-55.8
243.3981,-53.82
243.4981,-53.45
243.5981,-51.28
243.6981,-50.72
243.7981,-51.66
243.8981,-55.05
243.9981,-55.52
244.0981,-53.92
244.1981,-52.22
244.2981,-51.94
244.3981,-53.45
244.4981,-53.26
244.5981,-54.67
244.6981,-56.37
244.7981,-54.86
244.8981,-53.92
244.9981,-54.95
245.0981,-56.46
245.1981,-56.37
245.2981,-55.89
245.3981,-54.11
245.4981,-51.28
245.5981,-50.72
245.6981,-52.41
245.7981,-54.39
245.8981,-56.08
245.9981,-55.99
246.0981,-54.29
246.1981,-53.64
246.2981,-54.11
246.3981,-54.2
246.4981,-55.05
246.5981,-54.2
246.6981,-54.01
246.7981,-52.88
246.8981,-53.35
246.9981,-53.35
247.0981,-55.05
247.1981,-56.18
247.2981,-54.95
247.3981,-53.07
247.4981,-50.81
247.5981,-51.94
247.6981,-53.73
247.7981,-55.61
247.8981,-54.86
247.9981,-54.48
248.0981,-53.92
248.1981,-52.32
248.2981,-53.17
248.3981,-55.14
248.4981,-55.71
248.5981,-54.2
248.6981,-52.51
248.7981,-51.38
248.8981,-52.41
248.9981,-53.54
249.0981,-55.33
249.1981,-54.58
249.2981,-54.2
249.3981,-53.54
249.4981,-52.98
249.5981,-52.22
249.6981,-52.6
249.7981,-54.67
249.8981,-56.65
249.9981,-54.58
250.0981,-52.04
250.1981,-50.81
250.2981,-53.54
250.3981,-55.61
250.4981,-56.18
250.5981,-53.92
250.6981,-50.62
250.7981,-49.78
250.8981,-51.66
250.9981,-54.39
251.0981,-56.74
251.1981,-54.77
251.2981,-52.6
251.3981,-51.47
251.4981,-51.75
251.5981,-54.2
251.6981,-56.74
251.7981,-56.18
251.8981,-54.01
251.9981,-52.79
252.0981,-52.51
252.1981,-53.92
252.2981,-55.8
252.3981,-55.52
252.4981,-54.2
252.5981,-51.38
252.6981,-50.06
252.7981,-52.13
252.8981,-54.67
252.9981,-54.77
253.0981,-55.8
253.1981,-54.67
253.2981,-52.69
253.3981,-52.41
253.4981,-54.2
253.5981,-55.05
253.6981,-56.46
253.7981,-55.71
253.8981,-53.82
253.9981,-52.51
254.0981,-53.35
254.1981,-54.48
254.2981,-56.37
254.3981,-55.42
254.4981,-53.92
254.5981,-52.69
254.6981,-53.17
254.7981,-53.64
254.8981,-54.29
254.9981,-56.84
255.0981,-55.42
255.1981,-52.98
255.2981,-52.04
255.3981,-53.54
255.4981,-54.77
255.5981,-56.08
255.6981,-56.37
255.7981,-54.58
255.8981,-52.98
255.9981,-51.85
256.0981,-52.41
256.1981,-54.86
256.2981,-57.4
256.3981,-53.92
256.4981,-52.69
256.5981,-51.57
256.6981,-51.19
256.7981,-52.79
256.8981,-56.84
256.9981,-57.78
257.0981,-55.33
257.1981,-52.69
257.2981,-52.13
257.3981,-51.75
257.4981,-53.54
257.5981,-55.14
257.6981,-53.92
257.7981,-52.79
257.8981,-52.22
257.9981,-51.85
258.0981,-53.64
258.1981,-55.42
258.2981,-54.48
258.3981,-52.79
258.4981,-50.81
258.5981,-51.09
258.6981,-51.38
258.7981,-53.26
258.8981,-54.48
258.9981,-55.52
259.0981,-53.64
259.1981,-52.13
259.2981,-53.35
259.3981,-53.73
259.4981,-55.99
259.5981,-58.34
259.6981,-55.52
259.7981,-52.22
259.8981,-51.47
259.9981,-51.57
260.0981,-54.2
260.1981,-56.55
260.2981,-54.86
260.3981,-52.79
260.4981,-51.57
260.5981,-51.66
260.6981,-52.88
260.7981,-54.01
260.8981,-55.14
260.9981,-53.45
261.0981,-53.92
261.1981,-53.26
261.2981,-52.69
261.3981,-53.82
261.4981,-56.18
261.5981,-54.67
261.6981,-53.07
261.7981,-52.79
261.8981,-52.88
261.9981,-52.51
262.0981,-53.45
262.1981,-55.99
262.2981,-54.67
262.3981,-51.47
262.4981,-50.91
262.5981,-53.64
262.6981,-53.26
262.7981,-55.71
262.8981,-56.55
262.9981,-52.98
263.0981,-51.19
263.1981,-53.45
263.2981,-54.58
263.3981,-55.14
263.4981,-54.86
263.5981,-54.01
263.6981,-51.75
263.7981,-52.22
263.8981,-50.72
263.9981,-52.51
264.0981,-54.86
264.1981,-55.89
264.2981,-54.58
264.3981,-54.11
264.4981,-53.07
264.5981,-52.88
264.6981,-54.67
264.7981,-55.99
264.8981,-53.82
264.9981,-52.13
265.0981,-51.28
265.1981,-53.73
265.2981,-55.33
265.3981,-55.61
265.4981,-54.11
265.5981,-52.69
265.6981,-51.09
265.7981,-51.66
265.8981,-52.6
265.9981,-54.01
266.0981,-56.65
266.1981,-54.58
266.2981,-53.26
266.3981,-51.09
266.4981,-52.41
266.5981,-54.01
266.6981,-55.33
266.7981,-55.33
266.8981,-52.98
266.9981,-52.41
267.0981,-54.48
267.1981,-53.82
267.2981,-54.67
267.3981,-55.8
267.4981,-55.05
267.5981,-52.69
267.6981,-52.51
267.7981,-53.07
267.8981,-54.2
267.9981,-56.08
268.0981,-56.46
268.1981,-53.17
268.2981,-51.94
268.3981,-51.94
268.4981,-53.35
268.5981,-56.18
268.6981,-57.12
268.7981,-55.05
268.8981,-52.41
268.9981,-51.28
269.0981,-52.51
269.1981,-54.67
269.2981,-56.93
269.3981,-55.89
269.4981,-54.86
269.5981,-51.66
269.6981,-52.04
269.7981,-52.69
269.8981,-53.07
269.9981,-53.45
270.0981,-54.2
270.1981,-52.98
270.2981,-52.41
270.3981,-52.6
270.4981,-54.2
270.5981,-55.8
270.6981,-54.95
270.7981,-53.64
270.8981,-50.62
270.9981,-52.13
271.0981,-52.79
271.1981,-54.95
271.2981,-55.71
271.3981,-55.05
271.4981,-53.07
271.5981,-51.94
271.6981,-52.79
271.7981,-53.45
271.8981,-55.42
271.9981,-55.05
272.0981,-54.01
272.1981,-51.09
272.2981,-51.47
272.3981,-52.6
272.4981,-54.11
272.5981,-55.24
272.6981,-53.82
272.7981,-52.32
272.8981,-51.57
272.9981,-53.35
273.0981,-55.89
273.1981,-56.93
273.2981,-57.21
273.3981,-53.54
273.4981,-50.25
273.5981,-50.06
273.6981,-52.69
273.7981,-55.14
273.8981,-56.08
273.9981,-55.14
274.0981,-54.29
274.1981,-53.26
274.2981,-53.07
274.3981,-54.2
274.4981,-55.71
274.5981,-54.39
274.6981,-53.35
274.7981,-52.69
274.8981,-51.57
274.9981,-53.54
275.0981,-55.05
275.1981,-54.39
275.2981,-55.33
275.3981,-53.07
275.4981,-51.75
275.5981,-51.94
275.6981,-53.17
275.7981,-55.24
275.8981,-55.24
275.9981,-52.22
276.0981,-52.32
276.1981,-53.82
276.2981,-54.29
276.3981,-56.08
276.4981,-56.55
276.5981,-54.2
276.6981,-53.17
276.7981,-52.79
276.8981,-53.26
276.9981,-53.54
277.0981,-54.86
277.1981,-54.67
277.2981,-53.82
277.3981,-53.17
277.4981,-53.35
277.5981,-53.73
277.6981,-55.05
277.7981,-55.61
277.8981,-55.05
277.9981,-53.07
278.0981,-51.47
278.1981,-53.17
278.2981,-54.58
278.3981,-55.71
278.4981,-54.39
278.5981,-52.32
278.6981,-50.34
278.7981,-50.44
278.8981,-52.41
278.9981,-54.39
279.0981,-57.21
279.1981,-55.33
279.2981,-51.85
279.3981,-51.94
279.4981,-50.15
279.5981,-51.0
279.6981,-54.67
279.7981,-55.61
279.8981,-52.98
279.9981,-51.28
280.0981,-52.13
280.1981,-53.26
280.2981,-54.77
280.3981,-55.61
280.4981,-55.61
280.5981,-52.04
280.6981,-51.47
280.7981,-51.47
280.8981,-51.19
280.9981,-55.05
281.0981,-56.84
281.1981,-55.89
281.2981,-52.6
281.3981,-52.41
281.4981,-52.69
281.5981,-53.92
281.6981,-57.59
281.7981,-56.46
281.8981,-52.22
281.9981,-50.25
282.0981,-52.04
282.1981,-55.05
282.2981,-55.89
282.3981,-56.37
282.4981,-53.64
282.5981,-51.75
282.6981,-51.09
282.7981,-52.22
282.8981,-52.98
282.9981,-53.82
283.0981,-55.61
283.1981,-51.94
283.2981,-51.85
283.3981,-52.22
283.4981,-54.39
283.5981,-55.99
283.6981,-55.05
283.7981,-53.35
283.8981,-51.09
283.9981,-50.15
284.0981,-52.22
284.1981,-54.39
284.2981,-56.46
284.3981,-53.92
284.4981,-52.69
284.5981,-52.32
284.6981,-51.28
284.7981,-52.41
284.8981,-54.86
284.9981,-55.24
285.0981,-53.45
285.1981,-52.32
285.2981,-51.19
285.3981,-51.57
285.4981,-53.92
285.5981,-56.93
285.6981,-54.58
285.7981,-52.32
285.8981,-52.22
285.9981,-50.25
286.0981,-50.81
286.1981,-55.05
286.2981,-55.52
286.3981,-54.39
286.4981,-52.79
286.5981,-51.09
286.6981,-52.04
286.7981,-53.64
286.8981,-54.86
286.9981,-55.05
287.0981,-54.01
287.1981,-53.07
287.2981,-52.6
287.3981,-53.35
287.4981,-54.58
287.5981,-56.55
287.6981,-55.42
287.7981,-51.75
287.8981,-51.38
287.9981,-52.32
288.0981,-53.35
288.1981,-56.37
288.2981,-56.37
288.3981,-54.77
288.4981,-52.22
288.5981,-51.94
288.6981,-53.17
288.7981,-54.67
288.8981,-55.05
288.9981,-54.58
289.0981,-52.6
289.1981,-51.0
289.2981,-51.38
289.3981,-53.45
289.4981,-55.33
289.5981,-56.18
289.6981,-53.35
289.7981,-51.75
289.8981,-50.25
289.9981,-51.85
290.0981,-54.86
290.1981,-57.02
290.2981,-55.05
290.3981,-52.41
290.4981,-51.19
290.5981,-52.13
290.6981,-53.45
290.7981,-54.95
290.8981,-56.27
290.9981,-53.07
291.0981,-51.94
291.1981,-51.66
291.2981,-52.6
291.3981,-54.39
291.4981,-55.71
291.5981,-53.82
291.6981,-53.35
291.7981,-52.6
291.8981,-52.32
291.9981,-53.26
292.0981,-55.89
292.1981,-55.61
292.2981,-53.82
292.3981,-52.41
292.4981,-50.62
292.5981,-52.98
292.6981,-54.67
292.7981,-55.71
292.8981,-55.52
292.9981,-52.04
293.0981,-49.49
293.1981,-50.53
293.2981,-51.66
293.3981,-54.67
293.4981,-55.42
293.5981,-52.98
293.6981,-51.66
293.7981,-50.34
293.8981,-49.87
293.9981,-53.26
294.0981,-56.55
294.1981,-55.42
294.2981,-52.88
294.3981,-51.75
294.4981,-52.69
294.5981,-53.73
294.6981,-57.02
294.7981,-57.68
294.8981,-54.86
294.9981,-52.88
295.0981,-51.19
295.1981,-52.04
295.2981,-55.71
295.3981,-56.27
295.4981,-54.39
295.5981,-52.79
295.6981,-51.66
295.7981,-51.57
295.8981,-52.69
295.9981,-55.89
296.0981,-56.84
296.1981,-53.26
296.2981,-51.38
296.3981,-52.22
296.4981,-53.64
296.5981,-54.58
296.6981,-56.55
296.7981,-54.67
296.8981,-51.47
296.9981,-51.38
297.0981,-51.28
297.1981,-52.41
297.2981,-54.48
297.3981,-54.86
297.4981,-53.17
297.5981,-50.62
297.6981,-50.53
297.7981,-50.91
297.8981,-52.13
297.9981,-54.58
298.0981,-54.48
298.1981,-53.07
298.2981,-52.22
298.3981,-51.0
298.4981,-53.64
298.5981,-56.18
298.6981,-56.84
298.7981,-55.89
298.8981,-53.26
298.9981,-51.85
299.8981,-82.53
299.9981,-51.85
300.0981,-51.0
300.1981,-52.51
300.2981,-56.84
300.3981,-56.18
300.4981,-54.2
300.5981,-51.66
300.6981,-51.85
300.7981,-53.35
300.8981,-55.52
300.9981,-56.37
301.0981,-53.73
301.1981,-50.81
301.2981,-50.53
301.3981,-52.41
301.4981,-53.26
301.5981,-55.05
301.6981,-53.73
301.7981,-50.91
301.8981,-49.21
301.9981,-50.15
302.0981,-51.94
302.1981,-54.2
302.2981,-57.49
302.3981,-54.86
302.4981,-52.98
302.5981,-52.88
302.6981,-51.66
302.7981,-55.05
302.8981,-56.55
302.9981,-55.24
303.0981,-52.69
303.1981,-50.34
303.2981,-51.94
303.3981,-52.98
303.4981,-54.67
303.5981,-56.55
303.6981,-53.26
303.7981,-50.91
303.8981,-50.44
303.9981,-51.0
304.0981,-52.04
304.1981,-54.67
304.2981,-55.89
304.3981,-52.88
304.4981,-52.79
304.5981,-53.07
304.6981,-53.73
304.7981,-55.61
304.8981,-57.4
304.9981,-53.35
305.0981,-51.28
305.1981,-51.66
305.2981,-52.32
305.3981,-53.17
305.4981,-55.8
305.5981,-54.58
305.6981,-51.19
305.7981,-49.87
305.8981,-49.49
305.9981,-51.28
306.0981,-54.48
306.1981,-56.27
306.2981,-54.86
306.3981,-52.88
306.4981,-50.53
306.5981,-52.13
306.6981,-54.2
306.7981,-55.89
306.8981,-53.73
306.9981,-51.85
307.0981,-50.15
307.1981,-48.84
307.2981,-50.44
307.3981,-54.2
307.4981,-55.8
307.5981,-54.11
307.6981,-51.66
307.7981,-51.38
307.8981,-52.6
307.9981,-53.92
308.0981,-55.71
308.1981,-55.99
308.2981,-54.58
308.3981,-52.32
308.4981,-51.66
308.5981,-53.26
308.6981,-55.05
308.7981,-55.89
308.8981,-53.07
308.9981,-51.57
309.0981,-52.41
309.1981,-51.19
309.2981,-52.13
309.3981,-54.48
309.4981,-56.46
309.5981,-52.32
309.6981,-50.91
309.7981,-50.81
309.8981,-50.72
309.9981,-53.54
310.0981,-56.18
310.1981,-54.86
310.2981,-51.94
310.3981,-51.0
310.4981,-51.66
310.5981,-54.11
310.6981,-57.12
310.7981,-55.14
310.8981,-52.98
310.9981,-50.25
311.0981,-49.4
311.1981,-51.19
311.2981,-53.26
311.3981,-55.14
311.4981,-54.11
311.5981,-51.85
311.6981,-52.13
311.7981,-51.66
311.8981,-52.13
311.9981,-54.48
312.0981,-54.95
312.1981,-52.6
312.2981,-50.91
312.3981,-50.91
312.4981,-51.66
312.5981,-54.01
312.6981,-55.42
312.7981,-53.82
312.8981,-51.47
312.9981,-48.74
313.0981,-49.59
313.1981,-51.57
313.2981,-54.11
313.3981,-55.24
313.4981,-52.41
313.5981,-50.91
313.6981,-49.59
313.7981,-50.91
313.8981,-53.54
313.9981,-55.8
314.0981,-53.73
314.1981,-51.19
314.2981,-52.04
314.3981,-51.38
314.4981,-52.22
314.5981,-55.14
314.6981,-53.73
314.7981,-53.64
314.8981,-51.75
314.9981,-48.93
315.0981,-49.31
315.1981,-52.98
315.2981,-54.39
315.3981,-54.01
315.4981,-52.79
315.5981,-49.59
315.6981,-49.87
315.7981,-53.35
315.8981,-55.99
315.9981,-55.33
316.0981,-53.92
316.1981,-52.6
316.2981,-50.53
316.3981,-49.87
316.4981,-51.66
316.5981,-55.8
316.6981,-54.29
316.7981,-52.22
316.8981,-50.91
316.9981,-50.34
317.0981,-51.47
317.1981,-53.82
317.2981,-55.99
317.3981,-53.82
317.4981,-51.47
317.5981,-51.0
317.6981,-52.51
317.7981,-55.14
317.8981,-55.42
317.9981,-55.61
318.0981,-52.04
318.1981,-50.06
318.2981,-49.4
318.3981,-50.44
318.4981,-54.39
318.5981,-56.46
318.6981,-53.35
318.7981,-49.59
318.8981,-49.21
318.9981,-51.09
319.0981,-53.35
319.1981,-55.89
319.2981,-54.29
319.3981,-50.72
319.4981,-50.15
319.5981,-51.57
319.6981,-52.69
319.7981,-55.42
319.8981,-55.61
319.9981,-53.73
320.0981,-52.13
320.1981,-50.44
320.2981,-50.44
320.3981,-52.69
320.4981,-56.37
320.5981,-54.48
320.6981,-51.85
320.7981,-51.66
320.8981,-50.44
320.9981,-51.57
321.0981,-53.45
321.1981,-55.8
321.2981,-54.01
321.3981,-52.32
321.4981,-51.66
321.5981,-50.53
321.6981,-52.88
321.7981,-56.84
321.8981,-55.8
321.9981,-53.07
322.0981,-50.91
322.1981,-50.15
322.2981,-50.62
322.3981,-53.92
322.4981,-55.61
322.5981,-53.45
322.6981,-51.47
322.7981,-49.87
322.8981,-50.81
322.9981,-54.01
323.0981,-55.24
323.1981,-56.18
323.2981,-53.64
323.3981,-50.62
323.4981,-49.97
323.5981,-50.53
323.6981,-53.26
323.7981,-54.29
323.8981,-53.17
323.9981,-50.72
324.0981,-49.4
324.1981,-49.31
324.2981,-50.53
324.3981,-53.64
324.4981,-55.24
324.5981,-52.98
324.6981,-51.28
324.7981,-50.62
324.8981,-51.85
324.9981,-53.54
325.0981,-54.67
325.1981,-53.17
325.2981,-52.04
325.3981,-50.53
325.4981,-50.81
325.5981,-53.92
325.6981,-55.89
325.7981,-54.58
325.8981,-52.88
325.9981,-50.44
326.0981,-49.31
326.1981,-49.31
326.2981,-51.47
326.3981,-54.58
326.4981,-55.24
326.5981,-52.13
326.6981,-49.97
326.7981,-50.06
326.8981,-51.85
326.9981,-54.86
327.0981,-55.61
327.1981,-53.54
327.2981,-50.15
327.3981,-49.87
327.4981,-51.19
327.5981,-52.6
327.6981,-54.2
327.7981,-55.8
327.8981,-52.79
327.9981,-50.72
328.0981,-49.68
328.1981,-51.0
328.2981,-53.92
328.3981,-55.14
328.4981,-52.98
328.5981,-52.32
328.6981,-51.38
328.7981,-50.53
328.8981,-52.98
328.9981,-56.55
329.0981,-53.92
329.1981,-51.66
329.2981,-49.4
329.3981,-49.21
329.4981,-50.91
329.5981,-54.39
329.6981,-54.11
329.7981,-52.22
329.8981,-50.62
329.9981,-50.72
330.0981,-51.09
330.1981,-53.45
330.2981,-55.33
330.3981,-54.29
330.4981,-52.04
330.5981,-50.34
330.6981,-50.72
330.7981,-50.62
330.8981,-53.35
330.9981,-55.8
331.0981,-54.39
331.1981,-51.09
331.2981,-49.59
331.3981,-49.59
331.4981,-51.57
331.5981,-54.39
331.6981,-54.77
331.7981,-51.94
331.8981,-50.15
331.9981,-49.97
332.0981,-51.0
332.1981,-52.98
332.2981,-55.05
332.3981,-53.35
332.4981,-51.75
332.5981,-50.44
332.6981,-50.34
332.7981,-52.41
332.8981,-54.77
332.9981,-53.73
333.0981,-51.28
333.1981,-49.59
333.2981,-49.12
333.3981,-50.53
333.4981,-53.73
333.5981,-56.46
333.6981,-54.11
333.7981,-50.91
333.8981,-49.78
333.9981,-50.25
334.0981,-53.26
334.1981,-56.84
334.2981,-54.48
334.3981,-51.57
334.4981,-50.34
334.5981,-51.28
334.6981,-51.94
334.7981,-54.01
334.8981,-54.86
334.9981,-50.62
335.0981,-49.59
335.1981,-49.21
335.2981,-49.31
335.3981,-50.91
335.4981,-54.67
335.5981,-54.11
335.6981,-53.07
335.7981,-51.28
335.8981,-49.59
335.9981,-51.28
336.0981,-55.14
336.1981,-55.8
336.2981,-53.73
336.3981,-51.38
336.4981,-50.53
336.5981,-52.41
336.6981,-52.88
336.7981,-55.14
336.8981,-54.77
336.9981,-52.04
337.0981,-50.81
337.1981,-50.62
337.2981,-50.44
337.3981,-52.51
337.4981,-54.58
337.5981,-53.45
337.6981,-50.15
337.7981,-49.87
337.8981,-51.0
337.9981,-52.98
338.0981,-54.77
338.1981,-54.01
338.2981,-53.64
338.3981,-49.87
338.4981,-49.21
338.5981,-50.44
338.6981,-52.79
338.7981,-55.33
338.8981,-52.41
338.9981,-51.0
339.0981,-50.62
339.1981,-49.87
339.2981,-52.51
339.3981,-55.24
339.4981,-55.14
339.5981,-51.94
339.6981,-49.87
339.7981,-50.62
339.8981,-52.04
339.9981,-54.11
340.0981,-54.58
340.1981,-53.17
340.2981,-50.25
340.3981,-48.55
340.4981,-50.91
340.5981,-51.47
340.6981,-53.17
340.7981,-54.01
340.8981,-52.13
340.9981,-50.06
341.0981,-49.78
341.1981,-50.06
341.2981,-51.94
341.3981,-55.61
341.4981,-54.48
341.5981,-50.81
341.6981,-49.97
341.7981,-50.72
341.8981,-51.47
341.9981,-53.92
342.0981,-54.29
342.1981,-51.57
342.2981,-49.87
342.3981,-47.61
342.4981,-49.12
342.5981,-54.29
342.6981,-55.52
342.7981,-53.26
342.8981,-51.66
342.9981,-51.19
343.0981,-49.87
343.1981,-50.44
343.2981,-53.35
343.3981,-55.14
343.4981,-53.17
343.5981,-50.34
343.6981,-49.49
343.7981,-51.47
343.8981,-54.29
343.9981,-56.55
344.0981,-53.92
344.1981,-50.91
344.2981,-48.84
344.3981,-48.27
344.4981,-48.84
344.5981,-52.41
344.6981,-55.14
344.7981,-52.88
344.8981,-51.0
344.9981,-50.44
345.0981,-51.66
345.1981,-53.45
345.2981,-54.95
345.3981,-53.35
345.4981,-50.53
345.5981,-49.87
345.6981,-51.09
345.7981,-52.6
345.8981,-52.98
345.9981,-53.45
346.0981,-51.19
346.1981,-49.02
346.2981,-49.12
346.3981,-49.59
346.4981,-51.94
346.5981,-54.01
346.6981,-54.11
346.7981,-53.26
346.8981,-51.09
346.9981,-49.49
347.0981,-51.0
347.1981,-54.11
347.2981,-55.42
347.3981,-53.17
347.4981,-50.44
347.5981,-49.02
347.6981,-49.68
347.7981,-52.32
347.8981,-54.58
347.9981,-54.48
348.0981,-51.75
348.1981,-49.49
348.2981,-50.62
348.3981,-52.41
348.4981,-53.64
348.5981,-54.48
348.6981,-52.41
348.7981,-50.25
348.8981,-48.93
348.9981,-50.81
349.0981,-52.98
349.1981,-56.37
349.2981,-55.42
349.3981,-51.28
349.4981,-50.34
349.5981,-50.62
349.6981,-51.38
349.7981,-53.64
349.8981,-53.64
349.9981,-52.04
350.0981,-49.59
350.1981,-48.37
350.2981,-48.65
350.3981,-50.81
350.4981,-52.98
350.5981,-52.13
350.6981,-50.06
350.7981,-48.84
350.8981,-48.93
350.9981,-48.84
351.0981,-50.15
351.1981,-53.54
351.2981,-52.69
351.3981,-49.4
351.4981,-48.46
351.5981,-48.93
351.6981,-51.57
351.7981,-54.29
351.8981,-54.01
351.9981,-50.81
352.0981,-49.02
352.1981,-50.25
352.2981,-50.44
352.3981,-52.41
352.4981,-53.64
352.5981,-51.57
352.6981,-50.15
352.7981,-49.78
352.8981,-51.19
352.9981,-51.75
353.0981,-54.01
353.1981,-55.33
353.2981,-52.79
353.3981,-51.47
353.4981,-50.44
353.5981,-50.62
353.6981,-52.32
353.7981,-54.86
353.8981,-52.13
353.9981,-49.97
354.0981,-48.74
354.1981,-48.65
354.2981,-50.91
354.3981,-54.01
354.4981,-53.45
354.5981,-50.91
354.6981,-50.34
354.7981,-49.87
354.8981,-50.53
354.9981,-52.32
355.0981,-54.58
355.1981,-52.51
355.2981,-50.25
355.3981,-48.74
355.4981,-49.68
355.5981,-50.81
355.6981,-52.41
355.7981,-53.26
355.8981,-51.75
355.9981,-49.21
356.0981,-48.55
356.1981,-50.44
356.2981,-52.51
356.3981,-55.33
356.4981,-54.77
356.5981,-51.57
356.6981,-50.72
356.7981,-50.44
356.8981,-51.09
356.9981,-53.26
357.0981,-54.29
357.1981,-52.32
357.2981,-49.68
357.3981,-48.27
357.4981,-49.31
357.5981,-52.51
357.6981,-55.24
357.7981,-53.35
357.8981,-51.0
357.9981,-50.34
358.0981,-50.44
358.1981,-51.0
358.2981,-53.54
358.3981,-55.71
358.4981,-53.35
358.5981,-50.34
358.6981,-49.68
358.7981,-50.81
358.8981,-52.51
358.9981,-53.45
359.0981,-54.2
359.1981,-53.45
359.2981,-50.15
359.3981,-49.21
359.4981,-49.21
359.5981,-51.85
359.6981,-55.14
359.7981,-52.69
359.8981,-49.59
359.9981,-48.93
360.0981,-50.72
360.1981,-51.38
360.2981,-54.77
360.3981,-54.77
360.4981,-51.0
360.5981,-49.49
360.6981,-48.55
360.7981,-49.02
360.8981,-51.94
360.9981,-54.11
361.0981,-51.85
361.1981,-49.4
361.2981,-49.31
361.3981,-49.21
361.4981,-51.0
361.5981,-53.45
361.6981,-54.58
361.7981,-52.6
361.8981,-49.97
361.9981,-48.65
362.0981,-49.78
362.1981,-52.13
362.2981,-53.92
362.3981,-51.28
362.4981,-49.68
362.5981,-48.93
362.6981,-48.37
362.7981,-50.91
362.8981,-53.07
362.9981,-53.07
363.0981,-50.91
363.1981,-50.34
363.2981,-49.78
363.3981,-51.19
363.4981,-52.69
363.5981,-54.95
363.6981,-52.98
363.7981,-51.19
363.8981,-50.53
363.9981,-50.81
364.0981,-52.51
364.1981,-55.42
364.2981,-55.05
364.3981,-51.38
364.4981,-49.12
364.5981,-48.84
364.6981,-49.12
364.7981,-51.19
364.8981,-53.82
364.9981,-52.6
365.0981,-50.53
365.1981,-50.34
365.2981,-50.15
365.3981,-51.28
365.4981,-52.79
365.5981,-54.11
365.6981,-52.41
365.7981,-50.72
365.8981,-50.25
365.9981,-50.81
366.0981,-52.13
366.1981,-53.92
366.2981,-51.85
366.3981,-48.93
366.4981,-47.89
366.5981,-46.95
366.6981,-49.97
366.7981,-52.88
366.8981,-51.66
366.9981,-49.59
367.0981,-47.8
367.1981,-48.18
367.2981,-50.15
367.3981,-53.07
367.4981,-53.26
367.5981,-52.22
367.6981,-50.81
367.7981,-48.74
367.8981,-49.87
367.9981,-52.13
368.0981,-54.29
368.1981,-54.29
368.2981,-50.81
368.3981,-49.87
368.4981,-48.37
368.5981,-49.02
368.6981,-50.91
368.7981,-52.79
368.8981,-51.66
368.9981,-50.44
369.0981,-49.97
369.1981,-49.49
369.2981,-50.34
369.3981,-53.26
369.4981,-55.14
369.5981,-52.69
369.6981,-49.4
369.7981,-49.21
369.8981,-50.15
369.9981,-50.44
370.0981,-52.98
370.1981,-51.94
370.2981,-50.06
370.3981,-49.02
370.4981,-47.24
370.5981,-48.55
370.6981,-53.54
370.7981,-53.54
370.8981,-51.0
370.9981,-49.59
371.0981,-48.65
371.1981,-49.02
371.2981,-50.72
371.3981,-53.92
371.4981,-53.45
371.5981,-50.44
371.6981,-48.84
371.7981,-49.31
371.8981,-50.34
371.9981,-52.6
372.0981,-53.26
372.1981,-51.38
372.2981,-48.37
372.3981,-47.89
372.4981,-49.02
372.5981,-50.91
372.6981,-52.51
372.7981,-53.07
372.8981,-51.85
372.9981,-49.12
373.0981,-48.93
373.1981,-50.25
373.2981,-52.41
373.3981,-54.95
373.4981,-54.01
373.5981,-52.32
373.6981,-49.97
373.7981,-49.31
373.8981,-52.51
373.9981,-53.64
374.0981,-53.45
374.1981,-51.0
374.2981,-48.27
374.3981,-48.46
374.4981,-49.59
374.5981,-52.6
374.6981,-54.01
374.7981,-52.32
374.8981,-49.87
374.9981,-49.12
375.0981,-49.68
375.1981,-50.72
375.2981,-52.41
375.3981,-53.45
375.4981,-51.57
375.5981,-49.87
375.6981,-48.74
375.7981,-49.68
375.8981,-51.0
375.9981,-53.07
376.0981,-51.75
376.1981,-49.4
376.2981,-48.93
376.3981,-49.31
376.4981,-50.25
376.5981,-53.54
376.6981,-54.29
376.7981,-51.09
376.8981,-49.78
376.9981,-49.49
377.0981,-49.87
377.1981,-51.66
377.2981,-53.26
377.3981,-53.07
377.4981,-50.91
377.5981,-49.4
377.6981,-50.25
377.7981,-50.06
377.8981,-53.17
377.9981,-53.35
378.0981,-52.04
378.1981,-50.34
378.2981,-49.02
378.3981,-48.74
378.4981,-50.62
378.5981,-54.67
378.6981,-53.73
378.7981,-51.19
378.8981,-49.78
378.9981,-49.31
379.0981,-50.72
379.1981,-52.98
379.2981,-54.2
379.3981,-52.04
379.4981,-48.37
379.5981,-48.08
379.6981,-50.62
379.7981,-52.04
379.8981,-53.35
379.9981,-52.79
380.0981,-50.44
380.1981,-48.84
380.2981,-49.12
380.3981,-51.19
380.4981,-54.67
380.5981,-54.67
380.6981,-51.75
380.7981,-49.4
380.8981,-50.34
380.9981,-51.09
381.0981,-52.04
381.1981,-54.39
381.2981,-52.32
381.3981,-50.44
381.4981,-49.02
381.5981,-48.84
381.6981,-50.62
381.7981,-51.66
381.8981,-52.88
381.9981,-52.22
382.0981,-50.15
382.1981,-49.02
382.2981,-49.12
382.3981,-52.13
382.4981,-55.14
382.5981,-53.73
382.6981,-50.81
382.7981,-49.59
382.8981,-50.06
382.9981,-49.87
383.0981,-51.94
383.1981,-53.45
383.2981,-51.38
383.3981,-49.49
383.4981,-49.59
383.5981,-48.93
383.6981,-50.44
383.7981,-53.26
383.8981,-52.98
383.9981,-51.28
384.0981,-49.78
384.1981,-50.72
384.2981,-51.09
384.3981,-52.51
384.4981,-54.67
384.5981,-53.35
384.6981,-50.34
384.7981,-48.18
384.8981,-50.72
384.9981,-51.47
385.0981,-51.94
385.1981,-53.45
385.2981,-51.57
385.3981,-49.68
385.4981,-49.68
385.5981,-50.34
385.6981,-51.09
385.7981,-53.35
385.8981,-52.69
385.9981,-49.49
386.0981,-49.12
386.1981,-49.31
386.2981,-50.53
386.3981,-53.82
386.4981,-53.82
386.5981,-52.32
386.6981,-51.28
386.7981,-50.62
386.8981,-50.53
386.9981,-51.19
387.0981,-53.92
387.1981,-54.58
387.2981,-51.66
387.3981,-49.21
387.4981,-49.31
387.5981,-50.72
387.6981,-52.51
387.7981,-52.88
387.8981,-51.66
387.9981,-48.93
388.0981,-48.18
388.1981,-49.59
388.2981,-51.38
388.3981,-53.82
388.4981,-52.6
388.5981,-49.97
388.6981,-48.93
388.7981,-49.4
388.8981,-49.49
388.9981,-52.41
389.0981,-52.79
389.1981,-49.68
389.2981,-49.21
389.3981,-48.93
389.4981,-50.15
389.5981,-52.98
389.6981,-54.67
389.7981,-55.42
389.8981,-52.41
389.9981,-50.34
390.0981,-49.4
390.1981,-50.91
390.2981,-54.86
390.3981,-56.55
390.4981,-52.32
390.5981,-50.34
390.6981,-49.12
390.7981,-49.12
390.8981,-50.91
390.9981,-52.69
391.0981,-53.64
391.1981,-51.38
391.2981,-49.21
391.3981,-49.59
391.4981,-50.53
391.5981,-52.22
391.6981,-54.11
391.7981,-53.54
391.8981,-50.15
391.9981,-48.65
392.0981,-49.68
392.1981,-51.66
392.2981,-52.69
392.3981,-52.79
392.4981,-51.09
392.5981,-50.44
392.6981,-49.87
392.7981,-49.87
392.8981,-50.72
392.9981,-53.17
393.0981,-52.41
393.1981,-49.97
393.2981,-50.34
393.3981,-50.81
393.4981,-51.38
393.5981,-53.54
393.6981,-53.26
393.7981,-51.75
393.8981,-49.97
393.9981,-49.68
394.0981,-48.84
394.1981,-50.81
394.2981,-52.32
394.3981,-51.57
394.4981,-49.21
394.5981,-48.74
394.6981,-48.93
394.7981,-50.72
394.8981,-54.2
394.9981,-54.39
395.0981,-52.04
395.1981,-50.34
395.2981,-49.68
395.3981,-51.0
395.4981,-52.88
395.5981,-55.05
395.6981,-53.45
395.7981,-51.94
395.8981,-51.0
395.9981,-51.47
396.0981,-51.66
396.1981,-53.64
396.2981,-53.35
396.3981,-52.13
396.4981,-51.0
396.5981,-50.72
396.6981,-50.34
396.7981,-53.35
396.8981,-55.99
396.9981,-54.86
397.0981,-49.97
397.1981,-49.49
397.2981,-50.34
397.3981,-51.94
397.4981,-54.67
397.5981,-54.95
397.6981,-51.94
397.7981,-49.59
397.8981,-48.27
397.9981,-49.59
398.0981,-51.57
398.1981,-53.35
398.2981,-53.82
398.3981,-51.75
398.4981,-51.28
398.5981,-50.62
398.6981,-51.38
398.7981,-53.45
398.8981,-54.67
398.9981,-53.73
399.0981,-52.51
399.1981,-50.72
399.2981,-52.22
399.3981,-51.47
399.4981,-54.48
399.5981,-53.35
399.6981,-50.44
399.7981,-49.68
399.8981,-50.72
399.9981,-51.66
400.0981,-51.57
400.1981,-53.26
400.2981,-51.47
400.3981,-49.97
400.4981,-49.87
400.5981,-50.91
400.6981,-52.41
400.7981,-53.92
400.8981,-53.92
400.9981,-52.04
401.0981,-49.87
401.1981,-50.53
401.2981,-51.75
401.3981,-53.73
401.4981,-55.8
401.5981,-53.92
401.6981,-49.68
401.7981,-49.02
401.8981,-50.25
401.9981,-50.81
402.0981,-53.35
402.1981,-54.29
402.2981,-50.34
402.3981,-49.31
402.4981,-50.06
402.5981,-51.28
402.6981,-53.64
402.7981,-54.48
402.8981,-53.45
402.9981,-51.94
403.0981,-51.09
403.1981,-50.62
403.2981,-50.81
403.3981,-54.58
403.4981,-53.92
403.5981,-51.66
403.6981,-50.62
403.7981,-50.34
403.8981,-52.6
403.9981,-52.51
404.0981,-53.64
404.1981,-53.17
404.2981,-51.38
404.3981,-50.34
404.4981,-50.62
404.5981,-51.57
404.6981,-54.48
404.7981,-54.2
404.8981,-52.98
404.9981,-50.81
405.0981,-50.06
405.1981,-52.22
405.2981,-54.39
405.3981,-55.14
405.4981,-51.38
405.5981,-48.65
405.6981,-48.46
405.7981,-48.93
405.8981,-51.47
405.9981,-54.11
406.0981,-55.52
406.1981,-52.69
406.2981,-51.66
406.3981,-50.81
406.4981,-52.88
406.5981,-54.67
406.6981,-53.54
406.7981,-53.35
406.8981,-52.41
406.9981,-50.06
407.0981,-50.34
407.1981,-51.09
407.2981,-53.26
407.3981,-55.14
407.4981,-52.51
407.5981,-50.62
407.6981,-49.68
407.7981,-50.44
407.8981,-53.64
407.9981,-53.92
408.0981,-52.98
408.1981,-51.28
408.2981,-50.81
408.3981,-50.34
408.4981,-51.85
408.5981,-54.39
408.6981,-53.82
408.7981,-51.47
408.8981,-51.28
408.9981,-51.0
409.0981,-50.81
409.1981,-52.51
409.2981,-53.54
409.3981,-52.51
409.4981,-50.34
409.5981,-49.02
409.6981,-49.12
409.7981,-51.28
409.8981,-53.73
409.9981,-55.52
410.0981,-55.24
410.1981,-52.41
410.2981,-50.44
410.3981,-50.15
410.4981,-52.32
410.5981,-56.37
410.6981,-54.39
410.7981,-52.51
410.8981,-51.66
410.9981,-51.09
411.0981,-51.85
411.1981,-54.86
411.2981,-55.52
411.3981,-53.26
411.4981,-51.85
411.5981,-50.34
411.6981,-51.47
411.7981,-53.26
411.8981,-55.89
411.9981,-53.82
412.0981,-50.81
412.1981,-51.66
412.2981,-50.72
412.3981,-52.13
412.4981,-53.82
412.5981,-54.48
412.6981,-52.69
412.7981,-50.34
412.8981,-50.06
412.9981,-51.66
413.0981,-53.73
413.1981,-54.11
413.2981,-52.69
413.3981,-51.75
413.4981,-49.49
413.5981,-49.87
413.6981,-51.38
413.7981,-54.77
413.8981,-55.33
413.9981,-53.45
414.0981,-51.85
414.1981,-49.78
414.2981,-50.81
414.3981,-53.26
414.4981,-55.61
414.5981,-54.11
414.6981,-51.19
414.7981,-50.34
414.8981,-50.72
414.9981,-51.47
415.0981,-52.79
415.1981,-54.58
415.2981,-53.92
415.3981,-53.07
415.4981,-53.45
415.5981,-51.75
415.6981,-52.88
415.7981,-55.24
415.8981,-54.77
415.9981,-51.38
416.0981,-50.53
416.1981,-51.19
416.2981,-51.94
416.3981,-53.07
416.4981,-55.52
416.5981,-54.86
416.6981,-51.75
416.7981,-50.91
416.8981,-50.91
416.9981,-52.13
417.0981,-54.48
417.1981,-55.61
417.2981,-54.67
417.3981,-53.35
417.4981,-51.57
417.5981,-51.09
417.6981,-52.6
417.7981,-56.08
417.8981,-54.01
417.9981,-51.19
418.0981,-50.34
418.1981,-50.53
418.2981,-52.04
418.3981,-53.92
418.4981,-53.54
418.5981,-52.51
418.6981,-52.22
418.7981,-51.09
418.8981,-52.13
418.9981,-53.73
419.0981,-54.86
419.1981,-54.58
419.2981,-51.38
419.3981,-50.72
419.4981,-51.38
419.5981,-52.6
419.6981,-55.71
419.7981,-56.37
419.8981,-52.88
419.9981,-50.34
420.0981,-50.72
420.1981,-50.62
420.2981,-52.41
420.3981,-55.14
420.4981,-53.92
420.5981,-52.6
420.6981,-51.47
420.7981,-51.28
420.8981,-54.77
420.9981,-55.99
421.0981,-56.27
421.1981,-54.11
421.2981,-52.79
421.3981,-51.09
421.4981,-52.88
421.5981,-53.17
421.6981,-53.92
421.7981,-53.07
421.8981,-51.85
421.9981,-50.06
422.0981,-50.81
422.1981,-52.41
422.2981,-54.95
422.3981,-56.27
422.4981,-52.88
422.5981,-50.15
422.6981,-49.78
422.7981,-50.34
422.8981,-52.41
422.9981,-55.42
423.0981,-55.14
423.1981,-52.51
423.2981,-51.09
423.3981,-51.0
423.4981,-52.69
423.5981,-55.42
423.6981,-54.29
423.7981,-51.66
423.8981,-50.44
423.9981,-50.81
424.0981,-51.28
424.1981,-52.79
424.2981,-54.77
424.3981,-54.29
424.4981,-51.94
424.5981,-51.66
424.6981,-51.28
424.7981,-52.32
424.8981,-54.39
424.9981,-55.14
425.0981,-54.58
425.1981,-51.94
425.2981,-51.94
425.3981,-52.41
425.4981,-53.73
425.5981,-55.33
425.6981,-54.39
425.7981,-52.6
425.8981,-51.94
425.9981,-51.57
426.0981,-52.32
426.1981,-54.39
426.2981,-54.86
426.3981,-53.26
426.4981,-52.88
426.5981,-51.66
426.6981,-51.85
426.7981,-53.35
426.8981,-54.95
426.9981,-55.52
427.0981,-51.85
427.1981,-49.78
427.2981,-50.25
427.3981,-53.07
427.4981,-56.27
427.5981,-55.61
427.6981,-52.51
427.7981,-51.38
427.8981,-50.62
427.9981,-49.49
428.0981,-52.04
428.1981,-54.95
428.2981,-54.01
428.3981,-51.94
428.4981,-51.28
428.5981,-50.81
428.6981,-52.22
428.7981,-53.17
428.8981,-55.52
428.9981,-55.14
429.0981,-52.51
429.1981,-51.94
429.2981,-51.94
429.3981,-52.69
429.4981,-54.29
429.5981,-55.8
429.6981,-52.51
429.7981,-51.0
429.8981,-51.19
429.9981,-52.04
430.0981,-54.11
430.1981,-55.8
430.2981,-53.92
430.3981,-51.94
430.4981,-51.19
430.5981,-50.81
430.6981,-52.69
430.7981,-56.08
430.8981,-55.42
430.9981,-52.69
431.0981,-51.75
431.1981,-50.81
431.2981,-52.04
431.3981,-55.89
431.4981,-56.27
431.5981,-53.54
431.6981,-51.19
431.7981,-50.62
431.8981,-49.68
431.9981,-50.91
432.0981,-53.54
432.1981,-55.14
432.2981,-54.95
432.3981,-53.07
432.4981,-51.94
432.5981,-54.11
432.6981,-55.99
432.7981,-56.37
432.8981,-54.95
432.9981,-50.34
433.0981,-49.12
433.1981,-51.75
433.2981,-52.69
433.3981,-55.33
433.4981,-55.99
433.5981,-54.95
433.6981,-53.07
433.7981,-51.57
433.8981,-51.0
433.9981,-52.69
434.0981,-54.01
434.1981,-54.11
434.2981,-53.82
434.3981,-52.88
434.4981,-51.28
434.5981,-52.98
434.6981,-55.05
434.7981,-54.95
434.8981,-52.79
434.9981,-50.91
435.0981,-50.72
435.1981,-51.85
435.2981,-53.73
435.3981,-54.2
435.4981,-53.54
435.5981,-51.57
435.6981,-49.49
435.7981,-50.15
435.8981,-52.13
435.9981,-54.29
436.0981,-55.52
436.1981,-54.01
436.2981,-52.51
436.3981,-51.66
436.4981,-52.79
436.5981,-53.64
436.6981,-54.67
436.7981,-54.67
436.8981,-52.88
436.9981,-50.15
437.0981,-50.44
437.1981,-51.28
437.2981,-52.51
437.3981,-55.8
437.4981,-54.2
437.5981,-51.75
437.6981,-50.53
437.7981,-51.66
437.8981,-52.88
437.9981,-54.86
438.0981,-53.54
438.1981,-53.64
438.2981,-53.35
438.3981,-51.66
438.4981,-52.98
438.5981,-56.27
438.6981,-55.89
438.7981,-52.79
438.8981,-51.09
438.9981,-51.57
439.0981,-51.66
439.1981,-52.79
439.2981,-55.61
439.3981,-57.21
439.4981,-53.54
439.5981,-51.94
439.6981,-51.38
439.7981,-53.64
439.8981,-55.71
439.9981,-56.27
440.0981,-55.42
440.1981,-54.01
440.2981,-52.88
440.3981,-52.41
440.4981,-52.6
440.5981,-53.35
440.6981,-53.26
440.7981,-52.41
440.8981,-53.07
440.9981,-52.51
441.0981,-52.41
441.1981,-53.35
441.2981,-55.42
441.3981,-54.29
441.4981,-52.98
441.5981,-52.13
441.6981,-52.13
441.7981,-53.35
441.8981,-54.86
441.9981,-54.2
442.0981,-53.35
442.1981,-51.85
442.2981,-51.09
442.3981,-52.98
442.4981,-56.84
442.5981,-56.65
442.6981,-51.85
442.7981,-51.19
442.8981,-52.51
442.9981,-52.79
443.0981,-54.67
443.1981,-55.14
443.2981,-56.37
443.3981,-55.33
443.4981,-54.2
443.5981,-52.6
443.6981,-52.69
443.7981,-54.39
443.8981,-55.8
443.9981,-54.2
444.0981,-51.57
444.1981,-50.72
444.2981,-51.28
444.3981,-52.79
444.4981,-54.2
444.5981,-54.77
444.6981,-51.94
444.7981,-50.15
444.8981,-50.81
444.9981,-52.32
445.0981,-53.54
445.1981,-55.24
445.2981,-54.95
445.3981,-53.35
445.4981,-53.92
445.5981,-52.32
445.6981,-53.17
445.7981,-55.89
445.8981,-56.46
445.9981,-53.26
446.0981,-51.66
446.1981,-50.81
446.2981,-50.44
446.3981,-53.07
446.4981,-54.48
446.5981,-55.14
446.6981,-53.82
446.7981,-52.6
446.8981,-52.6
446.9981,-52.79
447.0981,-55.42
447.1981,-55.8
447.2981,-54.29
447.3981,-52.69
447.4981,-51.38
447.5981,-53.07
447.6981,-53.73
447.7981,-54.95
447.8981,-53.45
447.9981,-51.0
448.0981,-49.78
448.1981,-50.34
448.2981,-51.57
448.3981,-54.48
448.4981,-56.37
448.5981,-54.29
448.6981,-52.04
448.7981,-50.34
448.8981,-51.38
448.9981,-52.04
449.0981,-55.24
449.1981,-56.65
449.2981,-54.48
449.3981,-53.92
449.4981,-53.35
449.5981,-52.04
449.6981,-54.39
449.7981,-55.71
449.8981,-54.48
449.9981,-52.22
450.0981,-51.75
450.1981,-52.13
450.2981,-53.92
450.3981,-55.52
450.4981,-54.39
450.5981,-53.07
450.6981,-50.91
450.7981,-51.09
450.8981,-52.6
450.9981,-54.77
451.0981,-55.8
451.1981,-54.48
451.2981,-53.07
451.3981,-52.04
451.4981,-52.22
451.5981,-55.05
451.6981,-56.37
451.7981,-54.48
451.8981,-53.07
451.9981,-52.32
452.0981,-52.04
452.1981,-53.82
452.2981,-55.61
452.3981,-55.89
452.4981,-55.99
452.5981,-54.39
452.6981,-52.88
452.7981,-53.45
452.8981,-56.46
452.9981,-55.71
453.0981,-55.24
453.1981,-52.13
453.2981,-51.09
453.3981,-51.19
453.4981,-52.41
453.5981,-54.2
453.6981,-54.29
453.7981,-53.92
453.8981,-51.66
453.9981,-50.72
454.0981,-53.07
454.1981,-54.11
454.2981,-56.65
454.3981,-55.52
454.4981,-54.29
454.5981,-53.73
454.6981,-54.01
454.7981,-55.89
454.8981,-57.49
454.9981,-57.4
455.0981,-54.67
455.1981,-53.82
455.2981,-52.98
455.3981,-52.32
455.4981,-54.29
455.5981,-56.74
455.6981,-54.77
455.7981,-52.22
455.8981,-52.41
455.9981,-53.45
456.0981,-53.73
456.1981,-55.99
456.2981,-55.99
456.3981,-56.18
456.4981,-55.05
456.5981,-53.26
456.6981,-52.79
456.7981,-53.92
456.8981,-56.55
456.9981,-54.77
457.0981,-52.69
457.1981,-51.47
457.2981,-50.25
457.3981,-51.66
457.4981,-54.39
457.5981,-57.02
457.6981,-54.77
457.7981,-51.85
457.8981,-51.0
457.9981,-51.66
458.0981,-52.6
458.1981,-55.05
458.2981,-55.89
458.3981,-53.26
458.4981,-51.28
458.5981,-52.22
458.6981,-52.51
458.7981,-54.11
458.8981,-56.55
458.9981,-55.14
459.0981,-52.04
459.1981,-51.47
459.2981,-52.04
459.3981,-53.26
459.4981,-55.89
459.5981,-54.29
459.6981,-52.88
459.7981,-51.75
459.8981,-51.09
459.9981,-52.98
460.0981,-54.58
460.1981,-56.65
460.2981,-56.18
460.3981,-54.01
460.4981,-51.94
460.5981,-52.32
460.6981,-54.86
460.7981,-55.8
460.8981,-54.29
460.9981,-53.54
461.0981,-51.66
461.1981,-51.09
461.2981,-52.98
461.3981,-54.01
461.4981,-55.52
461.5981,-55.99
461.6981,-53.26
461.7981,-53.64
461.8981,-55.42
461.9981,-55.24
462.0981,-56.08
462.1981,-55.05
462.2981,-54.2
462.3981,-52.04
462.4981,-50.53
462.5981,-52.41
462.6981,-55.05
462.7981,-56.18
462.8981,-56.08
462.9981,-53.73
463.0981,-51.85
463.1981,-51.38
463.2981,-52.22
463.3981,-54.01
463.4981,-55.8
463.5981,-53.92
463.6981,-53.92
463.7981,-52.98
463.8981,-52.88
463.9981,-56.37
464.0981,-57.12
464.1981,-56.08
464.2981,-54.01
464.3981,-52.04
464.4981,-52.41
464.5981,-53.45
464.6981,-55.05
464.7981,-55.24
464.8981,-52.98
464.9981,-52.79
465.0981,-51.38
465.1981,-50.91
465.2981,-53.73
465.3981,-56.27
465.4981,-54.58
465.5981,-54.11
465.6981,-53.64
465.7981,-54.39
465.8981,-53.73
465.9981,-53.07
466.0981,-53.26
466.1981,-53.07
466.2981,-51.75
466.3981,-51.28
466.4981,-52.22
466.5981,-53.92
466.6981,-55.89
466.7981,-54.95
466.8981,-53.54
466.9981,-52.22
467.0981,-51.66
467.1981,-52.88
467.2981,-54.48
467.3981,-56.37
467.4981,-53.92
467.5981,-52.6
467.6981,-51.75
467.7981,-52.6
467.8981,-54.95
467.9981,-55.24
468.0981,-54.58
468.1981,-53.92
468.2981,-52.04
468.3981,-51.57
468.4981,-53.45
468.5981,-54.29
468.6981,-55.24
468.7981,-54.11
468.8981,-52.41
468.9981,-51.47
469.0981,-51.66
469.1981,-54.58
469.2981,-56.65
469.3981,-55.71
469.4981,-54.2
469.5981,-53.73
469.6981,-53.92
469.7981,-53.64
469.8981,-55.14
469.9981,-55.71
470.0981,-53.07
470.1981,-51.75
470.2981,-52.41
470.3981,-52.6
470.4981,-52.98
470.5981,-55.24
470.6981,-57.21
470.7981,-54.01
470.8981,-51.66
470.9981,-51.66
471.0981,-53.07
471.1981,-53.92
471.2981,-56.18
471.3981,-55.8
471.4981,-54.11
471.5981,-53.73
471.6981,-53.07
471.7981,-52.79
471.8981,-54.39
471.9981,-56.27
472.0981,-54.11
472.1981,-51.94
472.2981,-51.09
472.3981,-51.75
472.4981,-52.79
472.5981,-55.89
472.6981,-55.33
472.7981,-53.35
472.8981,-52.88
472.9981,-52.79
473.0981,-53.64
473.1981,-55.14
473.2981,-56.18
473.3981,-55.24
473.4981,-53.64
473.5981,-52.32
473.6981,-53.07
473.7981,-54.77
473.8981,-55.8
473.9981,-53.92
474.0981,-52.04
474.1981,-51.19
474.2981,-51.75
474.3981,-53.26
474.4981,-56.27
474.5981,-55.24
474.6981,-53.73
474.7981,-54.01
474.8981,-55.24
474.9981,-54.48
475.0981,-54.86
475.1981,-55.61
475.2981,-54.95
475.3981,-53.07
475.4981,-51.75
475.5981,-51.28
475.6981,-53.17
475.7981,-57.02
475.8981,-56.18
475.9981,-53.64
476.0981,-52.13
476.1981,-51.66
476.2981,-53.17
476.3981,-54.67
476.4981,-57.12
476.5981,-56.27
476.6981,-52.6
476.7981,-52.13
476.8981,-52.13
476.9981,-52.6
477.0981,-54.39
477.1981,-56.18
477.2981,-54.58
477.3981,-53.45
477.4981,-53.17
477.5981,-52.79
477.6981,-53.64
477.7981,-56.08
477.8981,-54.77
477.9981,-52.41
478.0981,-52.69
478.1981,-52.69
478.2981,-54.01
478.3981,-54.86
478.4981,-56.55
478.5981,-56.18
478.6981,-53.45
478.7981,-53.26
478.8981,-54.77
478.9981,-55.42
479.0981,-55.71
479.1981,-55.61
479.2981,-53.45
479.3981,-51.38
479.4981,-52.6
479.5981,-53.35
479.6981,-55.14
479.7981,-57.31
479.8981,-54.86
479.9981,-52.6
480.0981,-51.66
480.1981,-52.41
480.2981,-53.64
480.3981,-55.52
480.4981,-55.42
480.5981,-53.82
480.6981,-52.79
480.7981,-53.45
480.8981,-52.88
480.9981,-54.29
481.0981,-56.55
481.1981,-53.82
481.2981,-51.75
481.3981,-51.57
481.4981,-52.88
481.5981,-54.11
481.6981,-55.05
481.7981,-54.2
481.8981,-53.45
481.9981,-53.17
482.0981,-53.45
482.1981,-53.92
482.2981,-55.24
482.3981,-56.84
482.4981,-56.27
482.5981,-54.39
482.6981,-53.26
482.7981,-53.64
482.8981,-54.67
482.9981,-54.67
483.0981,-54.58
483.1981,-55.71
483.2981,-54.58
483.3981,-53.35
483.4981,-53.73
483.5981,-55.71
483.6981,-56.84
483.7981,-55.05
483.8981,-55.33
483.9981,-52.88
484.0981,-53.07
484.1981,-54.95
484.2981,-55.33
484.3981,-57.12
484.4981,-55.52
484.5981,-53.73
484.6981,-52.13
484.7981,-53.35
484.8981,-56.08
484.9981,-55.89
485.0981,-54.2
485.1981,-52.04
485.2981,-51.94
485.3981,-52.6
485.4981,-54.67
485.5981,-55.99
485.6981,-55.61
485.7981,-54.39
485.8981,-53.54
485.9981,-52.51
486.0981,-53.64
486.1981,-54.95
486.2981,-55.05
486.3981,-55.52
486.4981,-55.33
486.5981,-52.98
486.6981,-52.22
486.7981,-54.95
486.8981,-56.74
486.9981,-55.42
487.0981,-54.39
487.1981,-53.07
487.2981,-52.98
487.3981,-54.48
487.4981,-54.77
487.5981,-55.99
487.6981,-55.71
487.7981,-53.64
487.8981,-51.94
487.9981,-52.69
488.0981,-55.52
488.1981,-55.89
488.2981,-54.11
488.3981,-52.88
488.4981,-52.98
488.5981,-53.82
488.6981,-53.17
488.7981,-54.95
488.8981,-56.27
488.9981,-54.11
489.0981,-51.57
489.1981,-51.19
489.2981,-51.75
489.3981,-53.17
489.4981,-55.71
489.5981,-56.08
489.6981,-54.48
489.7981,-54.39
489.8981,-53.82
489.9981,-54.01
490.0981,-55.05
490.1981,-56.84
490.2981,-54.86
490.3981,-53.07
490.4981,-51.94
490.5981,-52.41
490.6981,-55.05
490.7981,-56.37
490.8981,-56.46
490.9981,-54.58
491.8981,-82.53
491.9981,-55.8
492.0981,-53.35
492.1981,-52.13
492.2981,-51.57
492.3981,-53.17
492.4981,-54.67
492.5981,-54.86
492.6981,-55.14
492.7981,-54.39
492.8981,-55.42
492.9981,-54.95
493.0981,-57.02
493.1981,-56.84
493.2981,-54.67
493.3981,-53.26
493.4981,-53.35
493.5981,-52.41
493.6981,-52.6
493.7981,-56.27
493.8981,-54.58
493.9981,-53.92
494.0981,-53.45
494.1981,-52.69
494.2981,-53.64
494.3981,-54.86
494.4981,-55.14
494.5981,-54.95
494.6981,-54.11
494.7981,-53.35
494.8981,-53.54
494.9981,-55.05
495.0981,-55.42
495.1981,-54.48
495.2981,-52.6
495.3981,-52.04
495.4981,-52.04
495.5981,-53.64
495.6981,-55.24
495.7981,-54.95
495.8981,-54.01
495.9981,-54.11
496.0981,-52.88
496.1981,-53.07
496.2981,-54.39
496.3981,-55.33
496.4981,-56.46
496.5981,-54.67
496.6981,-53.07
496.7981,-52.04
496.8981,-53.35
496.9981,-55.14
497.0981,-55.99
497.1981,-54.11
497.2981,-52.22
497.3981,-51.57
497.4981,-52.13
497.5981,-54.48
497.6981,-55.33
497.7981,-56.08
497.8981,-55.71
497.9981,-54.86
498.0981,-54.77
498.1981,-54.77
498.2981,-54.77
498.3981,-56.46
498.4981,-56.18
498.5981,-55.24
498.6981,-53.73
498.7981,-53.17
498.8981,-54.67
498.9981,-55.99
499.0981,-54.86
499.1981,-53.64
499.2981,-52.88
499.3981,-50.81
499.4981,-50.91
499.5981,-54.86
499.6981,-56.55
499.7981,-55.24
499.8981,-54.11
499.9981,-52.22
500.0981,-53.07
500.1981,-54.48
500.2981,-54.48
500.3981,-54.29
500.4981,-55.52
500.5981,-55.42
500.6981,-54.58
500.7981,-54.11
500.8981,-55.05
500.9981,-55.99
501.0981,-55.99
501.1981,-53.92
501.2981,-53.73
501.3981,-52.88
501.4981,-54.11
501.5981,-56.74
501.6981,-57.68
501.7981,-55.14
501.8981,-52.88
501.9981,-51.94
502.0981,-53.26
502.1981,-55.33
502.2981,-55.99
502.3981,-55.05
502.4981,-55.05
502.5981,-52.69
502.6981,-52.32
502.7981,-52.88
502.8981,-55.05
502.9981,-55.42
503.0981,-54.95
503.1981,-52.79
503.2981,-52.13
503.3981,-52.69
503.4981,-54.48
503.5981,-55.33
503.6981,-55.42
503.7981,-55.05
503.8981,-54.67
503.9981,-54.58
504.0981,-54.67
504.1981,-56.46
504.2981,-56.46
504.3981,-54.77
504.4981,-53.54
504.5981,-53.54
504.6981,-53.82
504.7981,-53.45
504.8981,-54.77
504.9981,-54.67
505.0981,-54.77
505.1981,-55.8
505.2981,-53.35
505.3981,-53.26
505.4981,-54.95
505.5981,-55.89
505.6981,-55.33
505.7981,-53.73
505.8981,-53.45
505.9981,-54.48
506.0981,-56.18
506.1981,-57.12
506.2981,-55.24
506.3981,-54.2
506.4981,-53.54
506.5981,-53.92
506.6981,-55.33
506.7981,-55.61
506.8981,-56.74
506.9981,-54.58
507.0981,-53.82
507.1981,-52.13
507.2981,-52.98
507.3981,-54.67
507.4981,-56.27
507.5981,-55.52
507.6981,-53.26
507.7981,-52.69
507.8981,-52.69
507.9981,-54.2
508.0981,-55.71
508.1981,-56.37
508.2981,-54.67
508.3981,-52.6
508.4981,-52.41
508.5981,-53.35
508.6981,-54.11
508.7981,-55.8
508.8981,-55.61
508.9981,-54.2
509.0981,-53.45
509.1981,-54.01
509.2981,-54.58
509.3981,-55.71
509.4981,-56.84
509.5981,-55.24
509.6981,-54.01
509.7981,-53.45
509.8981,-53.92
509.9981,-54.95
510.0981,-55.71
510.1981,-55.24
510.2981,-54.2
510.3981,-52.51
510.4981,-52.13
510.5981,-53.45
510.6981,-54.2
510.7981,-55.71
510.8981,-56.08
510.9981,-54.48
511.0981,-52.88
511.1981,-52.6
511.2981,-54.77
511.3981,-54.77
511.4981,-55.14
511.5981,-55.52
511.6981,-54.95
511.7981,-54.29
511.8981,-54.95
511.9981,-55.89
512.0981,-54.58
512.1981,-54.2
512.2981,-53.73
512.3981,-53.82
512.4981,-53.64
512.5981,-54.01
512.6981,-55.61
512.7981,-55.89
512.8981,-54.95
512.9981,-53.64
513.0981,-53.64
513.1981,-54.2
513.2981,-56.93
513.3981,-55.61
513.4981,-54.77
513.5981,-53.07
513.6981,-53.17
513.7981,-53.73
513.8981,-53.64
513.9981,-54.95
514.0981,-56.55
514.1981,-54.29
514.2981,-53.17
514.3981,-53.35
514.4981,-52.69
514.5981,-53.73
514.6981,-55.61
514.7981,-54.77
514.8981,-53.64
514.9981,-53.26
515.0981,-53.64
515.1981,-54.29
515.2981,-56.18
515.3981,-56.37
515.4981,-54.29
515.5981,-52.79
515.6981,-53.73
515.7981,-53.26
515.8981,-53.35
515.9981,-55.24
516.0981,-55.14
516.1981,-52.88
516.2981,-52.04
516.3981,-52.6
516.4981,-54.01
516.5981,-55.8
516.6981,-56.74
516.7981,-55.89
516.8981,-55.52
516.9981,-54.11
517.0981,-53.82
517.1981,-55.24
517.2981,-55.05
517.3981,-54.11
517.4981,-53.07
517.5981,-53.35
517.6981,-52.79
517.7981,-53.92
517.8981,-56.74
517.9981,-56.55
518.0981,-53.45
518.1981,-53.17
518.2981,-53.54
518.3981,-54.58
518.4981,-55.52
518.5981,-55.24
518.6981,-56.08
518.7981,-54.95
518.8981,-53.64
518.9981,-54.95
519.0981,-56.18
519.1981,-55.99
519.2981,-55.52
519.3981,-54.86
519.4981,-53.64
519.5981,-53.26
519.6981,-51.94
519.7981,-53.92
519.8981,-55.8
519.9981,-55.71
520.0981,-54.95
520.1981,-55.14
520.2981,-54.58
520.3981,-55.42
520.4981,-55.14
520.5981,-55.52
520.6981,-55.24
520.7981,-54.01
520.8981,-51.19
520.9981,-52.6
521.0981,-54.39
521.1981,-54.77
521.2981,-54.67
521.3981,-53.54
521.4981,-53.26
521.5981,-52.88
521.6981,-53.92
521.7981,-54.39
521.8981,-56.37
521.9981,-56.37
522.0981,-54.86
522.1981,-55.42
522.2981,-55.05
522.3981,-55.52
522.4981,-57.49
522.5981,-57.49
522.6981,-55.05
522.7981,-53.26
522.8981,-52.6
522.9981,-53.17
523.0981,-55.61
523.1981,-55.71
523.2981,-54.67
523.3981,-52.79
523.4981,-51.0
523.5981,-52.79
523.6981,-55.71
523.7981,-56.93
523.8981,-55.14
523.9981,-53.54
524.0981,-53.64
524.1981,-53.45
524.2981,-53.73
524.3981,-55.24
524.4981,-56.08
524.5981,-55.52
524.6981,-54.2
524.7981,-53.35
524.8981,-54.01
524.9981,-55.99
525.0981,-56.18
525.1981,-55.71
525.2981,-54.01
525.3981,-52.98
525.4981,-52.88
525.5981,-52.79
525.6981,-54.58
525.7981,-56.65
525.8981,-55.24
525.9981,-54.11
526.0981,-54.29
526.1981,-53.73
526.2981,-55.05
526.3981,-55.89
526.4981,-55.89
526.5981,-54.58
526.6981,-52.51
526.7981,-53.45
526.8981,-53.64
526.9981,-54.29
527.0981,-56.37
527.1981,-54.39
527.2981,-53.54
527.3981,-52.98
527.4981,-52.22
527.5981,-53.82
527.6981,-55.33
527.7981,-56.18
527.8981,-54.2
527.9981,-53.07
528.0981,-52.6
528.1981,-53.45
528.2981,-54.67
528.3981,-54.95
528.4981,-55.89
528.5981,-54.67
528.6981,-52.79
528.7981,-52.69
528.8981,-54.67
528.9981,-55.61
529.0981,-55.33
529.1981,-54.58
529.2981,-54.2
529.3981,-54.01
529.4981,-53.92
529.5981,-53.35
529.6981,-53.92
529.7981,-54.58
529.8981,-54.01
529.9981,-53.07
530.0981,-53.64
530.1981,-54.95
530.2981,-55.99
530.3981,-55.99
530.4981,-54.77
530.5981,-53.73
530.6981,-54.58
530.7981,-53.54
530.8981,-53.82
530.9981,-54.29
531.0981,-54.01
531.1981,-53.54
531.2981,-53.17
531.3981,-52.51
531.4981,-54.11
531.5981,-55.52
531.6981,-57.59
531.7981,-54.58
531.8981,-53.64
531.9981,-54.95
532.0981,-55.05
532.1981,-54.95
532.2981,-55.33
532.3981,-55.52
532.4981,-54.48
532.5981,-52.51
532.6981,-52.79
532.7981,-53.64
532.8981,-55.24
532.9981,-56.74
533.0981,-55.05
533.1981,-52.32
533.2981,-52.51
533.3981,-53.73
533.4981,-54.86
533.5981,-56.93
533.6981,-55.24
533.7981,-54.29
533.8981,-54.11
533.9981,-53.54
534.0981,-55.24
534.1981,-56.37
534.2981,-57.96
534.3981,-55.14
534.4981,-53.07
534.5981,-53.07
534.6981,-53.35
534.7981,-54.2
534.8981,-55.24
534.9981,-56.55
535.0981,-55.24
535.1981,-53.64
535.2981,-53.92
535.3981,-54.95
535.4981,-56.08
535.5981,-56.93
535.6981,-56.65
535.7981,-54.95
535.8981,-53.54
535.9981,-56.08
536.0981,-54.77
536.1981,-56.08
536.2981,-55.71
536.3981,-52.41
536.4981,-52.22
536.5981,-54.2
536.6981,-52.79
536.7981,-54.01
536.8981,-56.65
536.9981,-56.08
537.0981,-55.42
537.1981,-54.01
537.2981,-54.2
537.3981,-54.95
537.4981,-55.33
537.5981,-54.39
537.6981,-54.2
537.7981,-54.48
537.8981,-54.29
537.9981,-55.33
538.0981,-55.99
538.1981,-56.27
538.2981,-55.24
538.3981,-54.77
538.4981,-54.11
538.5981,-53.45
538.6981,-53.64
538.7981,-55.42
538.8981,-56.27
538.9981,-54.86
539.0981,-54.39
539.1981,-54.77
539.2981,-54.95
539.3981,-57.21
539.4981,-55.8
539.5981,-55.52
539.6981,-53.26
539.7981,-52.79
539.8981,-52.79
539.9981,-53.26
540.0981,-54.77
540.1981,-55.8
540.2981,-55.61
540.3981,-54.48
540.4981,-54.58
540.5981,-54.95
540.6981,-55.33
540.7981,-55.71
540.8981,-56.93
540.9981,-56.37
541.0981,-54.67
541.1981,-54.2
541.2981,-55.52
541.3981,-56.84
541.4981,-56.65
541.5981,-54.29
541.6981,-54.11
541.7981,-53.54
541.8981,-53.92
541.9981,-54.11
542.0981,-55.61
542.1981,-55.24
542.2981,-54.58
542.3981,-53.26
542.4981,-53.35
542.5981,-54.86
542.6981,-55.14
542.7981,-55.61
542.8981,-54.2
542.9981,-52.88
543.0981,-52.6
543.1981,-53.92
543.2981,-55.05
543.3981,-56.93
543.4981,-55.8
543.5981,-54.39
543.6981,-55.42
543.7981,-53.17
543.8981,-53.45
543.9981,-54.48
544.0981,-57.68
544.1981,-55.8
544.2981,-55.71
544.3981,-55.05
544.4981,-54.2
544.5981,-55.99
544.6981,-56.74
544.7981,-56.37
544.8981,-56.27
544.9981,-52.88
545.0981,-53.64
545.1981,-55.89
545.2981,-55.8
545.3981,-55.8
545.4981,-55.14
545.5981,-54.39
545.6981,-52.69
545.7981,-53.17
545.8981,-55.42
545.9981,-55.52
546.0981,-55.33
546.1981,-55.05
546.2981,-53.45
546.3981,-53.17
546.4981,-53.82
546.5981,-54.86
546.6981,-55.33
546.7981,-54.2
546.8981,-53.26
546.9981,-53.82
547.0981,-53.82
547.1981,-54.95
547.2981,-56.08
547.3981,-54.95
547.4981,-54.48
547.5981,-52.69
547.6981,-53.17
547.7981,-54.01
547.8981,-54.2
547.9981,-55.99
548.0981,-56.46
548.1981,-55.33
548.2981,-55.05
548.3981,-53.92
548.4981,-55.89
548.5981,-56.46
548.6981,-55.52
548.7981,-54.67
548.8981,-53.45
548.9981,-53.82
549.0981,-53.92
549.1981,-56.46
549.2981,-57.4
549.3981,-55.05
549.4981,-52.88
549.5981,-52.51
549.6981,-52.51
549.7981,-54.2
549.8981,-56.65
549.9981,-57.02
550.0981,-55.71
550.1981,-54.67
550.2981,-54.39
550.3981,-55.52
550.4981,-56.08
550.5981,-56.74
550.6981,-55.8
550.7981,-53.64
550.8981,-53.17
550.9981,-53.82
551.0981,-55.42
551.1981,-59.0
551.2981,-56.65
551.3981,-54.95
551.4981,-55.61
551.5981,-55.61
551.6981,-54.11
551.7981,-54.77
551.8981,-55.52
551.9981,-55.52
552.0981,-54.48
552.1981,-55.89
552.2981,-55.8
552.3981,-55.52
552.4981,-57.49
552.5981,-57.31
552.6981,-55.61
552.7981,-55.42
552.8981,-54.39
552.9981,-54.01
553.0981,-54.77
553.1981,-55.99
553.2981,-55.8
553.3981,-54.95
553.4981,-54.58
553.5981,-54.29
553.6981,-55.99
553.7981,-56.74
553.8981,-57.49
553.9981,-57.4
554.0981,-56.08
554.1981,-55.99
554.2981,-55.14
554.3981,-55.05
554.4981,-56.65
554.5981,-55.89
554.6981,-53.92
554.7981,-52.98
554.8981,-54.01
554.9981,-54.95
555.0981,-57.96
555.1981,-57.02
555.2981,-56.27
555.3981,-55.8
555.4981,-54.58
555.5981,-54.29
555.6981,-57.4
555.7981,-57.87
555.8981,-56.93
555.9981,-55.14
556.0981,-54.95
556.1981,-56.46
556.2981,-56.37
556.3981,-56.37
556.4981,-55.8
556.5981,-55.61
556.6981,-54.48
556.7981,-54.11
556.8981,-54.01
556.9981,-55.42
557.0981,-56.55
557.1981,-56.55
557.2981,-54.86
557.3981,-53.64
557.4981,-54.67
557.5981,-56.27
557.6981,-55.33
557.7981,-55.52
557.8981,-54.86
557.9981,-54.11
558.0981,-54.2
558.1981,-54.77
558.2981,-55.71
558.3981,-56.27
558.4981,-55.71
558.5981,-55.52
558.6981,-54.2
558.7981,-53.26
558.8981,-53.26
558.9981,-55.89
559.0981,-56.46
559.1981,-57.59
559.2981,-55.24
559.3981,-54.2
559.4981,-55.61
559.5981,-57.4
559.6981,-57.68
559.7981,-55.99
559.8981,-54.67
559.9981,-54.77
560.0981,-55.33
560.1981,-54.39
560.2981,-55.05
560.3981,-56.46
560.4981,-55.33
560.5981,-54.01
560.6981,-53.82
560.7981,-54.95
560.8981,-55.71
560.9981,-56.37
561.0981,-55.14
561.1981,-55.14
561.2981,-54.29
561.3981,-53.54
561.4981,-54.48
561.5981,-56.55
561.6981,-56.27
561.7981,-55.89
561.8981,-54.77
561.9981,-53.92
562.0981,-53.54
562.1981,-54.11
562.2981,-56.08
562.3981,-55.24
562.4981,-54.86
562.5981,-54.11
562.6981,-53.45
562.7981,-53.82
562.8981,-55.52
562.9981,-56.65
563.0981,-55.71
563.1981,-53.45
563.2981,-53.54
563.3981,-55.71
563.4981,-55.8
563.5981,-56.27
563.6981,-55.8
563.7981,-54.29
563.8981,-53.26
563.9981,-53.54
564.0981,-54.77
564.1981,-56.46
564.2981,-57.59
564.3981,-55.71
564.4981,-53.82
564.5981,-54.86
564.6981,-55.42
564.7981,-55.71
564.8981,-57.68
564.9981,-57.96
565.0981,-56.27
565.1981,-54.2
565.2981,-54.2
565.3981,-55.33
565.4981,-56.46
565.5981,-56.18
565.6981,-55.52
565.7981,-53.35
565.8981,-53.64
565.9981,-53.92
566.0981,-54.48
566.1981,-54.95
566.2981,-55.24
566.3981,-54.67
566.4981,-54.29
566.5981,-52.88
566.6981,-54.58
566.7981,-55.8
566.8981,-56.65
566.9981,-55.24
567.0981,-53.92
567.1981,-54.2
567.2981,-54.11
567.3981,-53.64
567.4981,-55.14
567.5981,-56.65
567.6981,-56.55
567.7981,-53.82
567.8981,-54.01
567.9981,-54.86
568.0981,-54.86
568.1981,-57.49
568.2981,-56.93
568.3981,-55.14
568.4981,-53.64
568.5981,-53.92
568.6981,-55.24
568.7981,-57.02
568.8981,-56.08
568.9981,-55.52
569.0981,-55.05
569.1981,-54.58
569.2981,-54.95
569.3981,-57.02
569.4981,-57.87
569.5981,-56.84
569.6981,-54.29
569.7981,-53.82
569.8981,-52.98
569.9981,-53.92
570.0981,-55.71
570.1981,-56.37
570.2981,-55.14
570.3981,-54.48
570.4981,-55.05
570.5981,-55.71
570.6981,-56.84
570.7981,-56.74
570.8981,-56.46
570.9981,-54.77
571.0981,-54.95
571.1981,-55.8
571.2981,-56.46
571.3981,-56.08
571.4981,-55.14
571.5981,-54.11
571.6981,-54.11
571.7981,-53.64
571.8981,-54.39
571.9981,-55.05
572.0981,-55.8
572.1981,-57.4
572.2981,-56.46
572.3981,-55.89
572.4981,-54.77
572.5981,-55.61
572.6981,-57.4
572.7981,-57.87
572.8981,-56.08
572.9981,-54.29
573.0981,-54.86
573.1981,-55.33
573.2981,-55.89
573.3981,-56.27
573.4981,-55.8
573.5981,-54.86
573.6981,-54.01
573.7981,-52.98
573.8981,-54.95
573.9981,-57.21
574.0981,-58.53
574.1981,-58.34
574.2981,-56.65
574.3981,-54.95
574.4981,-54.29
574.5981,-56.27
574.6981,-57.02
574.7981,-54.67
574.8981,-54.95
574.9981,-56.08
575.0981,-56.27
575.1981,-55.14
575.2981,-55.71
575.3981,-55.24
575.4981,-54.77
575.5981,-54.48
575.6981,-54.48
575.7981,-54.67
575.8981,-57.31
575.9981,-57.78
576.0981,-56.37
576.1981,-55.61
576.2981,-54.77
576.3981,-55.14
576.4981,-56.55
576.5981,-56.55
576.6981,-54.77
576.7981,-53.26
576.8981,-53.07
576.9981,-53.92
577.0981,-55.05
577.1981,-57.21
577.2981,-57.49
577.3981,-55.05
577.4981,-54.67
577.5981,-54.29
577.6981,-55.05
577.7981,-57.96
577.8981,-57.21
577.9981,-56.65
578.0981,-55.14
578.1981,-54.86
578.2981,-56.55
578.3981,-56.46
578.4981,-55.52
578.5981,-54.77
578.6981,-54.77
578.7981,-54.86
578.8981,-54.58
578.9981,-56.18
579.0981,-56.84
579.1981,-55.8
579.2981,-56.37
579.3981,-55.71
579.4981,-54.77
579.5981,-54.01
579.6981,-55.05
579.7981,-56.18
579.8981,-57.31
579.9981,-56.46
580.0981,-56.46
580.1981,-55.05
580.2981,-54.58
580.3981,-56.93
580.4981,-57.12
580.5981,-55.05
580.6981,-55.33
580.7981,-54.39
580.8981,-53.82
580.9981,-54.48
581.0981,-54.86
581.1981,-56.27
581.2981,-56.55
581.3981,-54.2
581.4981,-53.54
581.5981,-54.48
581.6981,-55.14
581.7981,-55.42
581.8981,-56.74
581.9981,-55.61
582.0981,-53.82
582.1981,-53.82
582.2981,-54.67
582.3981,-55.52
582.4981,-55.99
582.5981,-55.61
582.6981,-54.2
582.7981,-53.45
582.8981,-54.11
582.9981,-53.73
583.0981,-54.67
583.1981,-55.71
583.2981,-55.42
583.3981,-55.14
583.4981,-55.14
583.5981,-55.33
583.6981,-54.86
583.7981,-54.95
583.8981,-55.99
583.9981,-54.95
584.0981,-54.48
584.1981,-55.61
584.2981,-55.14
584.3981,-56.18
584.4981,-55.8
584.5981,-55.99
584.6981,-54.77
584.7981,-54.39
584.8981,-53.54
584.9981,-54.95
585.0981,-55.99
585.1981,-57.31
585.2981,-56.27
585.3981,-54.01
585.4981,-54.29
585.5981,-56.37
585.6981,-57.12
585.7981,-57.21
585.8981,-56.27
585.9981,-54.67
586.0981,-55.14
586.1981,-54.95
586.2981,-55.52
586.3981,-57.21
586.4981,-56.55
586.5981,-55.8
586.6981,-55.24
586.7981,-55.14
586.8981,-54.29
586.9981,-54.39
587.0981,-55.99
587.1981,-57.4
587.2981,-56.08
587.3981,-55.24
587.4981,-54.67
587.5981,-56.84
587.6981,-56.74
587.7981,-56.84
587.8981,-57.02
587.9981,-54.67
588.0981,-54.67
588.1981,-55.71
588.2981,-55.8
588.3981,-56.55
588.4981,-55.33
588.5981,-54.39
588.6981,-54.95
588.7981,-54.29
588.8981,-55.89
588.9981,-57.4
589.0981,-56.74
589.1981,-56.27
589.2981,-55.71
589.3981,-55.42
589.4981,-55.52
589.5981,-56.74
589.6981,-57.59
589.7981,-55.71
589.8981,-54.67
589.9981,-54.95
590.0981,-56.18
590.1981,-55.24
590.2981,-56.18
590.3981,-56.27
590.4981,-55.89
590.5981,-55.42
590.6981,-55.33
590.7981,-55.61
590.8981,-56.08
590.9981,-57.59
591.0981,-56.74
591.1981,-56.18
591.2981,-55.99
591.3981,-55.61
591.4981,-55.52
591.5981,-56.84
591.6981,-55.52
591.7981,-55.33
591.8981,-55.71
591.9981,-54.58
592.0981,-54.01
592.1981,-55.24
592.2981,-57.68
592.3981,-57.21
592.4981,-54.86
592.5981,-53.92
592.6981,-56.08
592.7981,-55.8
592.8981,-54.48
592.9981,-54.11
593.0981,-56.08
593.1981,-55.24
593.2981,-54.39
593.3981,-55.8
593.4981,-55.89
593.5981,-56.46
593.6981,-55.71
593.7981,-55.14
593.8981,-55.8
593.9981,-55.14
594.0981,-55.61
594.1981,-57.78
594.2981,-56.65
594.3981,-55.89
594.4981,-55.99
594.5981,-55.42
594.6981,-55.52
594.7981,-57.02
594.8981,-57.49
594.9981,-57.49
595.0981,-56.37
595.1981,-56.27
595.2981,-57.02
595.3981,-56.18
595.4981,-55.24
595.5981,-55.8
595.6981,-55.33
595.7981,-53.92
595.8981,-52.79
595.9981,-54.67
596.0981,-55.71
596.1981,-56.55
596.2981,-56.18
596.3981,-56.37
596.4981,-55.14
596.5981,-55.14
596.6981,-56.46
596.7981,-56.74
596.8981,-58.72
596.9981,-56.37
597.0981,-56.27
597.1981,-55.8
597.2981,-55.71
597.3981,-57.12
597.4981,-58.72
597.5981,-56.74
597.6981,-55.52
597.7981,-55.24
597.8981,-55.89
597.9981,-57.12
598.0981,-57.21
598.1981,-56.18
598.2981,-55.14
598.3981,-55.42
598.4981,-57.21
598.5981,-56.27
598.6981,-55.8
598.7981,-56.18
598.8981,-55.33
598.9981,-54.39
599.0981,-54.86
599.1981,-55.24
599.2981,-56.46
599.3981,-57.68
599.4981,-56.84
599.5981,-55.61
599.6981,-54.95
599.7981,-54.29
599.8981,-53.45
599.9981,-53.92
600.0981,-56.46
600.1981,-56.37
600.2981,-55.33
600.3981,-55.8
600.4981,-55.89
600.5981,-57.21
600.6981,-57.87
600.7981,-55.42
600.8981,-55.61
600.9981,-54.48
601.0981,-54.11
601.1981,-56.37
601.2981,-57.49
601.3981,-57.59
601.4981,-56.27
601.5981,-56.84
601.6981,-54.67
601.7981,-54.29
601.8981,-55.99
601.9981,-56.65
602.0981,-56.65
602.1981,-56.08
602.2981,-56.27
602.3981,-57.21
602.4981,-57.96
602.5981,-57.02
602.6981,-57.68
602.7981,-56.37
602.8981,-55.33
602.9981,-55.71
603.0981,-54.11
603.1981,-54.95
603.2981,-55.52
603.3981,-55.89
603.4981,-56.46
603.5981,-56.46
603.6981,-55.42
603.7981,-54.95
603.8981,-56.74
603.9981,-57.12
604.0981,-56.18
604.1981,-57.12
604.2981,-56.74
604.3981,-55.61
604.4981,-56.84
604.5981,-57.12
604.6981,-54.95
604.7981,-53.64
604.8981,-54.2
604.9981,-54.77
605.0981,-55.71
605.1981,-56.74
605.2981,-57.78
605.3981,-56.18
605.4981,-56.37
605.5981,-56.37
605.6981,-56.27
605.7981,-56.65
605.8981,-55.99
605.9981,-56.08
606.0981,-56.37
606.1981,-56.37
606.2981,-55.8
606.3981,-56.84
606.4981,-56.18
606.5981,-56.46
606.6981,-55.61
606.7981,-54.01
606.8981,-55.42
606.9981,-56.37
607.0981,-55.8
607.1981,-56.84
607.2981,-56.37
607.3981,-56.55
607.4981,-56.93
607.5981,-56.65
607.6981,-56.46
607.7981,-56.08
607.8981,-55.71
607.9981,-56.37
608.0981,-55.33
608.1981,-55.14
608.2981,-57.49
608.3981,-57.02
608.4981,-55.99
608.5981,-56.08
608.6981,-54.29
608.7981,-53.73
608.8981,-54.01
608.9981,-55.99
609.0981,-56.18
609.1981,-57.02
609.2981,-56.84
609.3981,-56.46
609.4981,-57.4
609.5981,-56.08
609.6981,-55.52
609.7981,-55.8
609.8981,-56.08
609.9981,-55.24
610.0981,-55.24
610.1981,-55.71
610.2981,-55.8
610.3981,-56.74
610.4981,-56.93
610.5981,-55.8
610.6981,-55.99
610.7981,-55.61
610.8981,-55.71
610.9981,-56.46
611.0981,-56.55
611.1981,-57.4
611.2981,-55.8
611.3981,-55.42
611.4981,-56.27
611.5981,-56.37
611.6981,-56.08
611.7981,-55.14
611.8981,-55.42
611.9981,-53.92
612.0981,-53.54
612.1981,-55.42
612.2981,-57.4
612.3981,-56.84
612.4981,-57.02
612.5981,-56.65
612.6981,-56.08
612.7981,-54.95
612.8981,-55.61
612.9981,-56.74
613.0981,-56.08
613.1981,-56.08
613.2981,-55.99
613.3981,-55.24
613.4981,-57.4
613.5981,-56.93
613.6981,-55.33
613.7981,-56.65
613.8981,-54.58
613.9981,-53.73
614.0981,-54.2
614.1981,-56.08
614.2981,-56.93
614.3981,-56.84
614.4981,-54.86
614.5981,-54.95
614.6981,-55.14
614.7981,-55.05
614.8981,-55.24
614.9981,-57.78
615.0981,-58.25
615.1981,-55.61
615.2981,-54.77
615.3981,-55.14
615.4981,-55.71
615.5981,-56.18
615.6981,-57.49
615.7981,-57.12
615.8981,-55.05
615.9981,-54.39
616.0981,-54.29
616.1981,-55.14
616.2981,-55.52
616.3981,-56.46
616.4981,-56.08
616.5981,-55.14
616.6981,-54.48
616.7981,-55.24
616.8981,-56.46
616.9981,-57.12
617.0981,-56.55
617.1981,-54.29
617.2981,-55.14
617.3981,-57.02
617.4981,-56.37
617.5981,-55.89
617.6981,-55.52
617.7981,-55.52
617.8981,-54.48
617.9981,-54.2
618.0981,-54.77
618.1981,-56.46
618.2981,-57.12
618.3981,-55.33
618.4981,-54.77
618.5981,-57.12
618.6981,-57.02
618.7981,-55.14
618.8981,-56.65
618.9981,-56.93
619.0981,-55.33
619.1981,-55.24
619.2981,-54.48
619.3981,-54.95
619.4981,-56.18
619.5981,-56.18
619.6981,-55.24
619.7981,-53.92
619.8981,-54.77
619.9981,-55.99
620.0980999999999,-56.65
620.1981000000001,-56.46
620.2981,-56.74
620.3981,-55.52
620.4981,-55.14
620.5980999999999,-55.71
620.6981000000001,-54.95
620.7981,-54.77
620.8981,-55.52
620.9981,-55.52
621.0980999999999,-54.95
621.1981000000001,-55.42
621.2981,-56.65
621.3981,-58.53
621.4981,-57.4
621.5980999999999,-57.31
621.6981000000001,-56.74
621.7981,-55.14
621.8981,-54.01
621.9981,-55.05
622.0980999999999,-55.33
622.1981000000001,-55.52
622.2981,-56.74
622.3981,-56.18
622.4981,-55.71
622.5980999999999,-56.37
622.6981000000001,-56.37
622.7981,-56.55
622.8981,-55.71
622.9981,-54.29
623.0980999999999,-54.39
623.1981000000001,-55.89
623.2981,-55.89
623.3981,-56.74
623.4981,-56.08
623.5980999999999,-55.52
623.6981000000001,-55.89
623.7981,-55.14
623.8981,-54.95
623.9981,-56.55
624.0980999999999,-57.02
624.1981000000001,-55.8
624.2981,-55.24
624.3981,-54.95
624.4981,-55.14
624.5980999999999,-57.31
624.6981000000001,-57.31
624.7981,-56.74
624.8981,-55.14
624.9981,-52.51
625.0980999999999,-52.13
625.1981000000001,-53.17
625.2981,-54.58
625.3981,-55.24
625.4981,-56.74
625.5980999999999,-56.18
625.6981000000001,-56.37
625.7981,-56.27
625.8981,-55.05
625.9981,-56.18
626.0980999999999,-57.49
626.1981000000001,-56.46
626.2981,-55.42
626.3981,-55.99
626.4981,-56.93
626.5980999999999,-56.46
626.6981000000001,-57.59
626.7981,-56.18
626.8981,-54.48
626.9981,-54.11
627.0980999999999,-55.05
627.1981000000001,-54.77
627.2981,-55.33
627.3981,-54.95
627.4981,-56.18
627.5980999999999,-56.08
627.6981000000001,-55.42
627.7981,-56.93
627.8981,-58.15
627.9981,-55.99
628.0980999999999,-55.05
628.1981000000001,-55.14
628.2981,-57.21
628.3981,-56.84
628.4981,-56.08
628.5980999999999,-55.52
628.6981000000001,-56.08
628.7981,-55.05
628.8981,-54.29
628.9981,-53.26
629.0980999999999,-54.39
629.1981000000001,-55.52
629.2981,-56.27
629.3981,-56.55
629.4981,-56.18
629.5980999999999,-55.42
629.6981000000001,-54.77
629.7981,-55.8
629.8981,-57.4
629.9981,-56.84
630.0980999999999,-55.24
630.1981000000001,-54.58
630.2981,-55.05
630.3981,-54.86
630.4981,-55.42
630.5980999999999,-57.59
630.6981000000001,-56.65
630.7981,-54.01
630.8981,-54.39
630.9981,-54.2
631.0980999999999,-54.39
631.1981000000001,-55.05
631.2981,-56.55
631.3981,-56.27
631.4981,-55.89
631.5980999999999,-54.67
631.6981000000001,-55.33
631.7981,-56.37
631.8981,-57.68
631.9981,-57.49
632.0980999999999,-56.46
632.1981000000001,-54.11
632.2981,-54.48
632.3981,-55.8
632.4981,-55.42
632.5980999999999,-54.67
632.6981000000001,-55.71
632.7981,-55.89
632.8981,-55.05
632.9981,-54.11
633.0980999999999,-54.95
633.1981000000001,-55.99
633.2981,-56.37
633.3981,-55.61
633.4981,-55.42
633.5980999999999,-55.52
633.6981000000001,-55.8
633.7981,-56.27
633.8981,-56.84
633.9981,-55.8
634.0980999999999,-54.77
634.1981000000001,-53.92
634.2981,-54.39
634.3981,-54.39
634.4981,-55.05
634.5980999999999,-55.89
634.6981000000001,-54.77
634.7981,-53.92
634.8981,-54.58
634.9981,-54.58
635.0980999999999,-55.71
635.1981000000001,-56.74
635.2981,-56.46
635.3981,-55.05
635.4981,-54.58
635.5980999999999,-54.58
635.6981000000001,-54.95
635.7981,-56.93
635.8981,-56.18
635.9981,-55.42
636.0980999999999,-54.48
636.1981000000001,-54.67
636.2981,-54.01
636.3981,-55.33
636.4981,-56.55
636.5980999999999,-54.58
636.6981000000001,-54.29
636.7981,-54.39
636.8981,-54.2
636.9981,-55.33
637.0980999999999,-57.02
637.1981000000001,-56.18
637.2981,-54.39
637.3981,-55.14
637.4981,-54.58
637.5980999999999,-54.95
637.6981000000001,-55.61
637.7981,-56.84
637.8981,-55.8
637.9981,-53.92
638.0980999999999,-53.07
638.1981000000001,-53.92
638.2981,-55.05
638.3981,-55.99
638.4981,-55.71
638.5980999999999,-54.11
638.6981000000001,-54.39
638.7981,-54.95
638.8981,-56.93
638.9981,-56.74
639.0980999999999,-55.52
639.1981000000001,-54.11
639.2981,-53.35
639.3981,-53.54
639.4981,-54.58
639.5980999999999,-54.58
639.6981000000001,-56.46
639.7981,-54.95
639.8981,-52.98
639.9981,-52.6
640.0980999999999,-52.51
640.1981000000001,-54.29
640.2981,-56.08
640.3981,-57.59
640.4981,-56.74
640.5980999999999,-55.42
640.6981000000001,-53.17
640.7981,-54.01
640.8981,-55.14
640.9981,-54.77
641.0980999999999,-55.33
641.1981000000001,-55.24
641.2981,-53.07
641.3981,-52.98
641.4981,-55.05
641.5980999999999,-55.05
641.6981000000001,-54.86
641.7981,-54.67
641.8981,-52.6
641.9981,-52.32
642.0980999999999,-52.13
642.1981000000001,-53.82
642.2981,-53.82
642.3981,-54.2
642.4981,-55.42
642.5980999999999,-54.67
642.6981000000001,-54.48
642.7981,-53.64
642.8981,-54.11
642.9981,-55.42
643.0980999999999,-55.61
643.1981000000001,-54.86
643.2981,-52.51
643.3981,-53.26
643.4981,-53.54
643.5980999999999,-54.48
643.6981000000001,-55.71
643.7981,-54.67
643.8981,-53.82
643.9981,-53.07
644.0980999999999,-52.69
644.1981000000001,-52.79
644.2981,-56.46
644.3981,-56.65
644.4981,-54.39
644.5980999999999,-53.73
644.6981000000001,-53.82
644.7981,-55.33
644.8981,-56.08
644.9981,-55.61
645.0980999999999,-53.45
645.1981000000001,-52.6
645.2981,-54.11
645.3981,-53.54
645.4981,-53.45
645.5980999999999,-54.2
645.6981000000001,-54.58
645.7981,-53.17
645.8981,-52.41
645.9981,-52.32
646.0980999999999,-54.58
646.1981000000001,-55.33
646.2981,-55.99
646.3981,-56.65
646.4981,-54.01
646.5980999999999,-53.54
646.6981000000001,-54.39
646.7981,-56.93
646.8981,-54.86
646.9981,-54.48
647.0980999999999,-52.41
647.1981000000001,-52.51
647.2981,-53.26
647.3981,-53.54
647.4981,-54.29
647.5980999999999,-54.77
647.6981000000001,-56.55
647.7981,-55.24
647.8981,-53.07
647.9981,-52.51
648.0980999999999,-53.92
648.1981000000001,-55.05
648.2981,-55.61
648.3981,-55.8
648.4981,-53.92
648.5980999999999,-53.07
648.6981000000001,-53.54
648.7981,-54.48
648.8981,-54.39
648.9981,-53.54
649.0980999999999,-52.04
649.1981000000001,-51.94
649.2981,-52.88
649.3981,-52.32
649.4981,-54.39
649.5980999999999,-54.01
649.6981000000001,-53.73
649.7981,-53.26
649.8981,-53.64
649.9981,-54.2
650.0980999999999,-54.86
650.1981000000001,-56.46
650.2981,-55.24
650.3981,-53.17
650.4981,-52.51
650.5980999999999,-52.98
650.6981000000001,-54.2
650.7981,-55.61
650.8981,-54.67
650.9981,-52.88
651.0980999999999,-52.13
651.1981000000001,-51.94
651.2981,-52.51
651.3981,-55.71
651.4981,-54.67
651.5980999999999,-54.77
651.6981000000001,-54.67
651.7981,-53.35
651.8981,-52.88
651.9981,-53.82
652.0980999999999,-55.42
652.1981000000001,-57.31
652.2981,-54.2
652.3981,-52.13
652.4981,-52.98
652.5980999999999,-52.98
652.6981000000001,-53.64
652.7981,-54.2
652.8981,-54.11
652.9981,-52.51
653.0980999999999,-52.04
653.1981000000001,-53.07
653.2981,-54.67
653.3981,-54.48
653.4981,-54.01
653.5980999999999,-53.26
653.6981000000001,-52.98
653.7981,-53.64
653.8981,-54.67
653.9981,-54.29
654.0980999999999,-54.95
654.1981000000001,-54.86
654.2981,-54.29
654.3981,-51.94
654.4981,-50.91
654.5980999999999,-52.41
654.6981000000001,-54.29
654.7981,-55.8
654.8981,-53.54
654.9981,-51.66
655.0980999999999,-50.44
655.1981000000001,-50.81
655.2981,-53.45
655.3981,-53.54
655.4981,-53.45
655.5980999999999,-53.26
655.6981000000001,-54.11
655.7981,-52.22
655.8981,-52.79
655.9981,-57.02
656.0980999999999,-53.82
656.1981000000001,-53.26
656.2981,-54.01
656.3981,-54.01
656.4981,-52.22
656.5980999999999,-53.07
656.6981000000001,-53.73
656.7981,-53.73
656.8981,-52.79
656.9981,-51.85
657.0980999999999,-52.88
657.1981000000001,-53.26
657.2981,-54.29
657.3981,-54.95
657.4981,-54.2
657.5980999999999,-54.29
657.6981000000001,-53.54
657.7981,-52.51
657.8981,-54.2
657.9981,-54.29
658.0980999999999,-54.29
658.1981000000001,-53.26
658.2981,-52.04
658.3981,-51.66
658.4981,-51.94
658.5980999999999,-54.48
658.6981000000001,-55.05
658.7981,-53.17
658.8981,-51.85
658.9981,-51.75
659.0980999999999,-52.51
659.1981000000001,-53.64
659.2981,-55.24
659.3981,-54.77
659.4981,-52.88
659.5980999999999,-52.32
659.6981000000001,-53.17
659.7981,-54.48
659.8981,-56.08
659.9981,-54.29
660.0980999999999,-52.98
660.1981000000001,-51.57
660.2981,-51.38
660.3981,-52.32
660.4981,-52.41
660.5980999999999,-53.07
660.6981000000001,-53.17
660.7981,-53.26
660.8981,-53.07
660.9981,-53.35
661.0980999999999,-53.82
661.1981000000001,-54.2
661.2981,-55.42
661.3981,-53.07
661.4981,-50.53
661.5980999999999,-50.44
661.6981000000001,-51.66
661.7981,-53.35
661.8981,-55.33
661.9981,-54.58
662.0980999999999,-52.6
662.1981000000001,-52.04
662.2981,-52.51
662.3981,-52.69
662.4981,-53.07
662.5980999999999,-53.92
662.6981000000001,-54.58
662.7981,-54.2
662.8981,-52.69
662.9981,-51.57
663.0980999999999,-52.41
663.1981000000001,-54.01
663.2981,-54.01
663.3981,-53.07
663.4981,-52.69
663.5980999999999,-51.66
663.6981000000001,-51.57
663.7981,-53.35
663.8981,-55.33
663.9981,-54.77
664.0980999999999,-51.75
664.1981000000001,-51.0
664.2981,-51.75
664.3981,-53.17
664.4981,-54.86
664.5980999999999,-53.92
664.6981000000001,-53.35
664.7981,-52.51
664.8981,-51.57
664.9981,-52.98
665.0980999999999,-54.86
665.1981000000001,-55.71
665.2981,-53.26
665.3981,-51.47
665.4981,-51.47
665.5980999999999,-51.19
665.6981000000001,-52.79
665.7981,-53.82
665.8981,-54.77
665.9981,-51.66
666.0980999999999,-50.15
666.1981000000001,-51.0
666.2981,-51.94
666.3981,-53.26
666.4981,-54.29
666.5980999999999,-52.6
666.6981000000001,-52.41
666.7981,-53.07
666.8981,-53.92
666.9981,-53.64
667.0980999999999,-54.48
667.1981000000001,-53.07
667.2981,-51.47
667.3981,-51.09
667.4981,-50.72
667.5980999999999,-52.79
667.6981000000001,-53.73
667.7981,-54.29
667.8981,-52.6
667.9981,-52.13
668.0980999999999,-51.75
668.1981000000001,-50.91
668.2981,-52.69
668.3981,-54.67
668.4981,-55.42
668.5980999999999,-53.35
668.6981000000001,-52.6
668.7981,-52.69
668.8981,-52.69
668.9981,-53.35
669.0980999999999,-54.48
669.1981000000001,-53.82
669.2981,-52.6
669.3981,-51.19
669.4981,-50.44
669.5980999999999,-51.94
669.6981000000001,-51.57
669.7981,-52.51
669.8981,-51.0
669.9981,-49.59
670.0980999999999,-49.02
670.1981000000001,-51.57
670.2981,-54.77
670.3981,-54.01
670.4981,-53.92
670.5980999999999,-54.95
670.6981000000001,-53.82
670.7981,-51.28
670.8981,-52.41
670.9981,-53.54
671.0980999999999,-53.17
671.1981000000001,-51.66
671.2981,-50.62
671.3981,-50.06
671.4981,-50.72
671.5980999999999,-51.75
671.6981000000001,-51.94
671.7981,-51.57
671.8981,-52.04
671.9981,-51.75
672.0980999999999,-50.62
672.1981000000001,-50.62
672.2981,-52.51
672.3981,-55.8
672.4981,-54.39
672.5980999999999,-53.73
672.6981000000001,-52.79
672.7981,-53.07
672.8981,-52.6
672.9981,-53.35
673.0980999999999,-52.98
673.1981000000001,-52.13
673.2981,-51.0
673.3981,-50.72
673.4981,-51.75
673.5980999999999,-52.51
673.6981000000001,-52.88
673.7981,-51.57
673.8981,-50.62
673.9981,-50.34
674.0980999999999,-50.81
674.1981000000001,-53.64
674.2981,-54.01
674.3981,-54.58
674.4981,-53.07
674.5980999999999,-51.94
674.6981000000001,-51.85
674.7981,-51.47
674.8981,-55.61
674.9981,-54.2
675.0980999999999,-51.94
675.1981000000001,-50.91
675.2981,-51.09
675.3981,-50.25
675.4981,-52.13
675.5980999999999,-52.04
675.6981000000001,-51.75
675.7981,-51.85
675.8981,-51.75
675.9981,-51.57
676.0980999999999,-52.32
676.1981000000001,-52.41
676.2981,-53.92
676.3981,-54.01
676.4981,-53.07
676.5980999999999,-52.98
676.6981000000001,-51.28
676.7981,-51.66
676.8981,-53.17
676.9981,-52.13
677.0980999999999,-51.47
677.1981000000001,-49.97
677.2981,-49.31
677.3981,-50.15
677.4981,-51.66
677.5980999999999,-52.98
677.6981000000001,-52.04
677.7981,-51.19
677.8981,-51.38
677.9981,-51.85
678.0980999999999,-52.88
678.1981000000001,-54.11
678.2981,-53.54
678.3981,-52.04
678.4981,-50.53
678.5980999999999,-50.44
678.6981000000001,-52.6
678.7981,-52.88
678.8981,-51.94
678.9981,-52.69
679.0980999999999,-51.75
679.1981000000001,-51.09
679.2981,-50.25
679.3981,-50.72
679.4981,-52.04
679.5980999999999,-54.11
679.6981000000001,-53.82
679.7981,-51.66
679.8981,-51.28
679.9981,-51.75
680.0980999999999,-52.69
680.1981000000001,-53.26
680.2981,-53.17
680.3981,-51.94
680.4981,-51.19
680.5980999999999,-51.38
680.6981000000001,-52.13
680.7981,-52.88
680.8981,-53.07
680.9981,-53.82
681.0980999999999,-51.47
681.1981000000001,-50.44
681.2981,-50.81
681.3981,-51.38
681.4981,-54.39
681.5980999999999,-53.17
681.6981000000001,-52.13
681.7981,-50.91
681.8981,-50.15
681.9981,-51.09
682.0980999999999,-51.75
682.1981000000001,-53.26
682.2981,-52.6
682.3981,-50.81
682.4981,-49.87
682.5980999999999,-51.57
682.6981000000001,-52.32
682.7981,-52.04
682.8981,-53.26
682.9981,-52.6
