Frequency(MHz),Power(dBmV/100kHz)_20260203_064235
107.8981,-82.52
107.9981,-55.89
108.0981,-55.7
108.1981,-54.38
108.2981,-55.13
108.3981,-55.7
108.4981,-54.0
108.5981,-54.19
108.6981,-56.26
108.7981,-58.43
108.8981,-58.71
108.9981,-55.7
109.0981,-54.76
109.1981,-53.91
109.2981,-52.69
109.3981,-51.93
109.4981,-51.84
109.5981,-53.06
109.6981,-52.5
109.7981,-53.44
109.8981,-55.23
109.9981,-54.19
110.0981,-53.82
110.1981,-54.0
110.2981,-54.57
110.3981,-57.58
110.4981,-58.14
110.5981,-57.3
110.6981,-57.2
110.7981,-53.72
110.8981,-51.84
110.9981,-50.99
111.0981,-51.46
111.1981,-52.03
111.2981,-51.46
111.3981,-52.78
111.4981,-55.42
111.5981,-55.32
111.6981,-56.45
111.7981,-56.36
111.8981,-55.13
111.9981,-54.85
112.0981,-54.85
112.1981,-54.1
112.2981,-53.72
112.3981,-55.04
112.4981,-55.7
112.5981,-55.51
112.6981,-54.66
112.7981,-56.36
112.8981,-56.54
112.9981,-57.02
113.0981,-54.76
113.1981,-54.66
113.2981,-55.04
113.3981,-54.85
113.4981,-55.23
113.5981,-52.87
113.6981,-52.5
113.7981,-52.03
113.8981,-52.03
113.9981,-52.87
114.0981,-54.85
114.1981,-56.83
114.2981,-58.99
114.3981,-58.9
114.4981,-57.86
114.5981,-55.42
114.6981,-53.44
114.7981,-52.69
114.8981,-53.25
114.9981,-54.29
115.0981,-53.82
115.1981,-54.66
115.2981,-53.06
115.3981,-52.97
115.4981,-54.57
115.5981,-54.29
115.6981,-54.47
115.7981,-56.26
115.8981,-56.36
115.9981,-56.92
116.0981,-57.96
116.1981,-57.67
116.2981,-55.13
116.3981,-53.63
116.4981,-53.06
116.5981,-53.16
116.6981,-53.44
116.7981,-54.0
116.8981,-56.45
116.9981,-56.73
117.0981,-54.76
117.1981,-54.66
117.2981,-54.57
117.3981,-53.06
117.4981,-52.31
117.5981,-53.82
117.6981,-54.47
117.7981,-53.91
117.8981,-54.94
117.9981,-56.36
118.0981,-54.29
118.1981,-54.38
118.2981,-55.98
118.3981,-57.3
118.4981,-56.54
118.5981,-56.17
118.6981,-56.45
118.7981,-56.45
118.8981,-54.66
118.9981,-54.1
119.0981,-52.97
119.1981,-52.03
119.2981,-51.84
119.3981,-52.31
119.4981,-52.12
119.5981,-55.32
119.6981,-56.64
119.7981,-55.04
119.8981,-56.45
119.9981,-56.64
120.0981,-55.79
120.1981,-52.97
120.2981,-52.4
120.3981,-53.63
120.4981,-53.91
120.5981,-54.94
120.6981,-54.1
120.7981,-52.87
120.8981,-53.34
120.9981,-51.93
121.0981,-52.31
121.1981,-53.06
121.2981,-54.94
121.3981,-56.07
121.4981,-56.45
121.5981,-54.94
121.6981,-54.0
121.7981,-52.87
121.8981,-51.93
121.9981,-51.84
122.0981,-52.69
122.1981,-54.66
122.2981,-57.49
122.3981,-58.33
122.4981,-57.02
122.5981,-55.79
122.6981,-54.19
122.7981,-53.72
122.8981,-52.4
122.9981,-51.93
123.0981,-50.8
123.1981,-51.56
123.2981,-52.03
123.3981,-52.31
123.4981,-53.91
123.5981,-55.13
123.6981,-54.0
123.7981,-54.66
123.8981,-55.51
123.9981,-55.98
124.0981,-55.23
124.1981,-54.38
124.2981,-54.47
124.3981,-53.16
124.4981,-51.93
124.5981,-51.09
124.6981,-50.8
124.7981,-51.09
124.8981,-52.12
124.9981,-54.1
125.0981,-55.32
125.1981,-55.98
125.2981,-55.98
125.3981,-55.13
125.4981,-53.16
125.5981,-53.82
125.6981,-53.25
125.7981,-52.97
125.8981,-54.94
125.9981,-54.0
126.0981,-53.72
126.1981,-54.66
126.2981,-54.0
126.3981,-53.34
126.4981,-54.19
126.5981,-53.91
126.6981,-53.44
126.7981,-54.47
126.8981,-53.72
126.9981,-52.78
127.0981,-52.22
127.1981,-51.74
127.2981,-51.27
127.3981,-51.56
127.4981,-52.4
127.5981,-54.66
127.6981,-55.13
127.7981,-57.02
127.8981,-57.86
127.9981,-56.92
128.0981,-54.57
128.1981,-53.63
128.2981,-54.76
128.3981,-53.91
128.4981,-52.03
128.5981,-51.65
128.6981,-52.97
128.7981,-55.98
128.8981,-54.1
128.9981,-51.93
129.0981,-51.93
129.1981,-54.19
129.2981,-55.13
129.3981,-57.3
129.4981,-56.83
129.5981,-56.07
129.6981,-55.13
129.7981,-54.1
129.8981,-53.72
129.9981,-52.5
130.0981,-52.59
130.1981,-53.34
130.2981,-53.82
130.3981,-53.91
130.4981,-55.32
130.5981,-55.13
130.6981,-53.72
130.7981,-52.03
130.8981,-52.12
130.9981,-53.34
131.0981,-53.25
131.1981,-52.69
131.2981,-53.44
131.3981,-53.91
131.4981,-55.32
131.5981,-56.07
131.6981,-55.23
131.7981,-55.98
131.8981,-56.92
131.9981,-57.11
132.0981,-56.07
132.1981,-56.17
132.2981,-55.13
132.3981,-52.78
132.4981,-51.93
132.5981,-51.65
132.6981,-50.43
132.7981,-51.18
132.8981,-52.31
132.9981,-52.03
133.0981,-53.44
133.1981,-54.76
133.2981,-56.17
133.3981,-56.83
133.4981,-57.3
133.5981,-55.7
133.6981,-54.57
133.7981,-54.94
133.8981,-54.66
133.9981,-54.66
134.0981,-54.76
134.1981,-54.38
134.2981,-53.44
134.3981,-54.47
134.4981,-54.66
134.5981,-53.82
134.6981,-54.85
134.7981,-56.26
134.8981,-57.77
134.9981,-57.02
135.0981,-57.02
135.1981,-54.47
135.2981,-53.44
135.3981,-54.0
135.4981,-53.91
135.5981,-54.19
135.6981,-54.85
135.7981,-56.26
135.8981,-57.96
135.9981,-57.11
136.0981,-55.13
136.1981,-54.47
136.2981,-55.32
136.3981,-53.53
136.4981,-53.16
136.5981,-52.97
136.6981,-54.0
136.7981,-54.85
136.8981,-55.32
136.9981,-55.32
137.0981,-53.72
137.1981,-54.47
137.2981,-56.36
137.3981,-56.64
137.4981,-58.05
137.5981,-57.02
137.6981,-55.7
137.7981,-52.59
137.8981,-52.31
137.9981,-52.12
138.0981,-51.27
138.1981,-50.9
138.2981,-51.27
138.3981,-52.69
138.4981,-53.34
138.5981,-55.51
138.6981,-57.77
138.7981,-56.36
138.8981,-55.32
138.9981,-54.19
139.0981,-52.87
139.1981,-53.82
139.2981,-54.85
139.3981,-55.32
139.4981,-54.66
139.5981,-54.29
139.6981,-54.29
139.7981,-54.19
139.8981,-53.72
139.9981,-55.23
140.0981,-56.45
140.1981,-57.2
140.2981,-56.83
140.3981,-55.04
140.4981,-53.63
140.5981,-51.56
140.6981,-51.37
140.7981,-51.93
140.8981,-52.22
140.9981,-52.87
141.0981,-53.91
141.1981,-56.26
141.2981,-58.05
141.3981,-58.43
141.4981,-57.67
141.5981,-57.02
141.6981,-54.85
141.7981,-53.34
141.8981,-52.69
141.9981,-52.5
142.0981,-52.69
142.1981,-52.59
142.2981,-53.25
142.3981,-54.29
142.4981,-54.57
142.5981,-53.44
142.6981,-52.87
142.7981,-54.85
142.8981,-56.54
142.9981,-56.07
143.0981,-57.2
143.1981,-56.26
143.2981,-54.0
143.3981,-52.5
143.4981,-51.74
143.5981,-53.72
143.6981,-53.44
143.7981,-53.16
143.8981,-55.23
143.9981,-54.85
144.0981,-55.04
144.1981,-55.04
144.2981,-55.32
144.3981,-54.29
144.4981,-53.06
144.5981,-54.0
144.6981,-53.06
144.7981,-53.63
144.8981,-53.16
144.9981,-53.34
145.0981,-54.66
145.1981,-54.47
145.2981,-54.76
145.3981,-55.98
145.4981,-56.83
145.5981,-55.98
145.6981,-55.51
145.7981,-55.6
145.8981,-54.38
145.9981,-52.97
146.0981,-51.84
146.1981,-52.03
146.2981,-51.46
146.3981,-50.43
146.4981,-51.84
146.5981,-54.19
146.6981,-56.07
146.7981,-56.45
146.8981,-56.54
146.9981,-54.85
147.0981,-55.89
147.1981,-56.73
147.2981,-57.39
147.3981,-55.98
147.4981,-54.0
147.5981,-53.91
147.6981,-52.97
147.7981,-52.69
147.8981,-54.29
147.9981,-54.57
148.0981,-55.13
148.1981,-55.04
148.2981,-54.29
148.3981,-54.66
148.4981,-55.42
148.5981,-54.1
148.6981,-53.82
148.7981,-53.34
148.8981,-52.22
148.9981,-53.16
149.0981,-54.29
149.1981,-54.19
149.2981,-55.79
149.3981,-56.92
149.4981,-56.64
149.5981,-56.64
149.6981,-54.47
149.7981,-54.29
149.8981,-54.76
149.9981,-53.91
150.0981,-54.38
150.1981,-53.25
150.2981,-52.4
150.3981,-52.22
150.4981,-53.25
150.5981,-53.34
150.6981,-52.97
150.7981,-53.91
150.8981,-55.32
150.9981,-58.05
151.0981,-60.21
151.1981,-57.02
151.2981,-54.47
151.3981,-54.85
151.4981,-53.72
151.5981,-54.47
151.6981,-52.87
151.7981,-52.87
151.8981,-53.44
151.9981,-52.87
152.0981,-53.72
152.1981,-55.7
152.2981,-55.89
152.3981,-55.32
152.4981,-54.29
152.5981,-55.79
152.6981,-54.38
152.7981,-53.72
152.8981,-54.19
152.9981,-53.25
153.0981,-52.97
153.1981,-53.25
153.2981,-52.97
153.3981,-54.19
153.4981,-54.57
153.5981,-56.45
153.6981,-58.24
153.7981,-57.02
153.8981,-54.66
153.9981,-54.1
154.0981,-53.06
154.1981,-51.09
154.2981,-51.46
154.3981,-51.93
154.4981,-53.06
154.5981,-55.23
154.6981,-55.32
154.7981,-55.7
154.8981,-57.02
154.9981,-57.67
155.0981,-55.04
155.1981,-54.1
155.2981,-53.72
155.3981,-54.1
155.4981,-53.82
155.5981,-53.63
155.6981,-52.5
155.7981,-51.27
155.8981,-51.09
155.9981,-51.65
156.0981,-51.56
156.1981,-52.78
156.2981,-54.38
156.3981,-54.94
156.4981,-56.83
156.5981,-57.77
156.6981,-56.07
156.7981,-54.38
156.8981,-53.44
156.9981,-53.06
157.0981,-52.69
157.1981,-53.25
157.2981,-52.97
157.3981,-53.63
157.4981,-54.57
157.5981,-54.47
157.6981,-54.38
157.7981,-54.57
157.8981,-54.1
157.9981,-53.72
158.0981,-54.29
158.1981,-53.34
158.2981,-51.84
158.3981,-51.37
158.4981,-52.22
158.5981,-52.22
158.6981,-52.78
158.7981,-54.1
158.8981,-53.63
158.9981,-54.1
159.0981,-57.39
159.1981,-58.05
159.2981,-56.36
159.3981,-53.34
159.4981,-52.69
159.5981,-51.84
159.6981,-50.33
159.7981,-50.14
159.8981,-51.27
159.9981,-53.06
160.0981,-53.06
160.1981,-54.1
160.2981,-56.17
160.3981,-57.02
160.4981,-57.2
160.5981,-56.92
160.6981,-54.94
160.7981,-54.47
160.8981,-54.76
160.9981,-53.91
161.0981,-53.16
161.1981,-52.03
161.2981,-52.59
161.3981,-53.63
161.4981,-53.34
161.5981,-53.06
161.6981,-53.16
161.7981,-54.76
161.8981,-57.11
161.9981,-56.45
162.0981,-53.34
162.1981,-53.53
162.2981,-54.57
162.3981,-52.78
162.4981,-52.87
162.5981,-53.25
162.6981,-53.34
162.7981,-54.85
162.8981,-55.7
162.9981,-54.57
163.0981,-54.29
163.1981,-55.6
163.2981,-54.85
163.3981,-54.47
163.4981,-55.13
163.5981,-53.44
163.6981,-51.84
163.7981,-52.78
163.8981,-52.87
163.9981,-52.78
164.0981,-52.59
164.1981,-53.16
164.2981,-55.32
164.3981,-56.45
164.4981,-57.3
164.5981,-57.11
164.6981,-56.07
164.7981,-52.97
164.8981,-52.69
164.9981,-53.72
165.0981,-52.78
165.1981,-51.09
165.2981,-50.99
165.3981,-53.91
165.4981,-54.47
165.5981,-54.19
165.6981,-53.91
165.7981,-56.07
165.8981,-54.38
165.9981,-54.94
166.0981,-56.83
166.1981,-55.13
166.2981,-54.1
166.3981,-53.25
166.4981,-52.87
166.5981,-51.37
166.6981,-52.78
166.7981,-54.19
166.8981,-53.53
166.9981,-54.1
167.0981,-55.13
167.1981,-56.36
167.2981,-57.39
167.3981,-55.6
167.4981,-55.7
167.5981,-52.5
167.6981,-52.22
167.7981,-52.4
167.8981,-50.62
167.9981,-50.9
168.0981,-52.97
168.1981,-53.63
168.2981,-55.7
168.3981,-55.42
168.4981,-54.94
168.5981,-55.13
168.6981,-56.92
168.7981,-55.42
168.8981,-55.32
168.9981,-54.66
169.0981,-53.82
169.1981,-53.63
169.2981,-52.59
169.3981,-51.09
169.4981,-50.71
169.5981,-51.46
169.6981,-51.74
169.7981,-55.04
169.8981,-56.92
169.9981,-57.77
170.0981,-57.3
170.1981,-55.89
170.2981,-54.47
170.3981,-53.53
170.4981,-52.4
170.5981,-52.03
170.6981,-51.46
170.7981,-52.12
170.8981,-53.34
170.9981,-54.0
171.0981,-53.53
171.1981,-53.63
171.2981,-52.59
171.3981,-52.97
171.4981,-55.6
171.5981,-55.6
171.6981,-53.16
171.7981,-52.97
171.8981,-51.84
171.9981,-52.4
172.0981,-51.46
172.1981,-51.46
172.2981,-53.82
172.3981,-55.32
172.4981,-56.26
172.5981,-57.58
172.6981,-57.96
172.7981,-55.79
172.8981,-54.0
172.9981,-52.78
173.0981,-53.53
173.1981,-52.69
173.2981,-51.84
173.3981,-52.22
173.4981,-51.74
173.5981,-51.56
173.6981,-50.99
173.7981,-54.1
173.8981,-56.64
173.9981,-55.79
174.0981,-56.73
174.1981,-58.24
174.2981,-56.45
174.3981,-55.04
174.4981,-53.34
174.5981,-52.4
174.6981,-52.69
174.7981,-52.5
174.8981,-52.5
174.9981,-52.87
175.0981,-53.16
175.1981,-54.1
175.2981,-56.07
175.3981,-56.36
175.4981,-55.98
175.5981,-56.17
175.6981,-53.91
175.7981,-53.72
175.8981,-54.19
175.9981,-53.34
176.0981,-55.04
176.1981,-54.57
176.2981,-53.82
176.3981,-54.76
176.4981,-55.23
176.5981,-54.85
176.6981,-55.51
176.7981,-55.79
176.8981,-55.98
176.9981,-53.91
177.0981,-52.69
177.1981,-52.97
177.2981,-52.22
177.3981,-50.62
177.4981,-51.65
177.5981,-52.5
177.6981,-52.12
177.7981,-51.93
177.8981,-53.91
177.9981,-56.45
178.0981,-57.2
178.1981,-56.07
178.2981,-53.63
178.3981,-52.69
178.4981,-52.69
178.5981,-53.16
178.6981,-52.59
178.7981,-53.63
178.8981,-52.4
178.9981,-52.78
179.0981,-53.91
179.1981,-53.53
179.2981,-53.06
179.3981,-54.94
179.4981,-56.45
179.5981,-57.39
179.6981,-56.73
179.7981,-55.7
179.8981,-55.51
179.9981,-52.97
180.0981,-51.46
180.1981,-53.06
180.2981,-51.93
180.3981,-51.93
180.4981,-53.25
180.5981,-55.23
180.6981,-56.45
180.7981,-56.54
180.8981,-56.64
180.9981,-54.38
181.0981,-52.4
181.1981,-52.22
181.2981,-52.22
181.3981,-51.37
181.4981,-50.99
181.5981,-52.4
181.6981,-53.53
181.7981,-54.38
181.8981,-54.1
181.9981,-55.04
182.0981,-55.6
182.1981,-55.98
182.2981,-58.24
182.3981,-56.17
182.4981,-55.04
182.5981,-53.16
182.6981,-51.56
182.7981,-51.56
182.8981,-49.86
182.9981,-50.62
183.0981,-50.99
183.1981,-52.5
183.2981,-53.91
183.3981,-55.79
183.4981,-57.2
183.5981,-55.79
183.6981,-54.19
183.7981,-54.66
183.8981,-53.06
183.9981,-52.5
184.0981,-53.44
184.1981,-52.97
184.2981,-52.5
184.3981,-52.97
184.4981,-54.19
184.5981,-53.53
184.6981,-52.78
184.7981,-53.63
184.8981,-54.85
184.9981,-53.91
185.0981,-54.19
185.1981,-54.19
185.2981,-53.06
185.3981,-51.46
185.4981,-51.93
185.5981,-52.03
185.6981,-53.82
185.7981,-53.91
185.8981,-54.85
185.9981,-55.6
186.0981,-56.45
186.1981,-56.45
186.2981,-54.85
186.3981,-53.34
186.4981,-53.63
186.5981,-51.74
186.6981,-50.62
186.7981,-50.9
186.8981,-50.99
186.9981,-51.09
187.0981,-51.09
187.1981,-52.22
187.2981,-53.44
187.3981,-53.25
187.4981,-54.76
187.5981,-56.07
187.6981,-57.02
187.7981,-56.36
187.8981,-54.76
187.9981,-53.72
188.0981,-53.72
188.1981,-53.82
188.2981,-51.84
188.3981,-51.93
188.4981,-53.34
188.5981,-54.47
188.6981,-54.47
188.7981,-54.66
188.8981,-55.6
188.9981,-55.13
189.0981,-54.0
189.1981,-53.91
189.2981,-54.19
189.3981,-53.25
189.4981,-52.97
189.5981,-53.34
189.6981,-53.34
189.7981,-53.06
189.8981,-53.82
189.9981,-54.66
190.0981,-54.19
190.1981,-54.47
190.2981,-55.79
190.3981,-55.98
190.4981,-55.6
190.5981,-53.16
190.6981,-52.22
190.7981,-52.12
190.8981,-51.18
190.9981,-50.24
191.0981,-50.9
191.1981,-53.53
191.2981,-54.38
191.3981,-54.19
191.4981,-56.45
191.5981,-56.92
191.6981,-56.83
191.7981,-57.96
191.8981,-56.73
191.9981,-55.7
192.0981,-52.87
192.1981,-51.56
192.2981,-52.31
192.3981,-53.34
192.4981,-53.25
192.5981,-52.22
192.6981,-53.06
192.7981,-52.31
192.8981,-52.87
192.9981,-53.44
193.0981,-53.63
193.1981,-54.57
193.2981,-54.94
193.3981,-53.44
193.4981,-51.93
193.5981,-51.74
193.6981,-52.87
193.7981,-52.5
193.8981,-52.31
193.9981,-53.82
194.0981,-56.17
194.1981,-55.42
194.2981,-55.13
194.3981,-54.85
194.4981,-54.85
194.5981,-53.44
194.6981,-52.87
194.7981,-51.37
194.8981,-51.65
194.9981,-53.25
195.0981,-53.53
195.1981,-52.59
195.2981,-52.59
195.3981,-53.82
195.4981,-55.13
195.5981,-54.85
195.6981,-56.92
195.7981,-58.8
195.8981,-57.3
195.9981,-55.23
196.0981,-52.12
196.1981,-50.52
196.2981,-50.24
196.3981,-51.37
196.4981,-50.05
196.5981,-50.8
196.6981,-53.25
196.7981,-52.97
196.8981,-54.29
196.9981,-57.49
197.0981,-55.79
197.1981,-54.57
197.2981,-54.47
197.3981,-54.0
197.4981,-53.34
197.5981,-53.25
197.6981,-52.69
197.7981,-53.25
197.8981,-53.53
197.9981,-53.63
198.0981,-53.82
198.1981,-52.87
198.2981,-53.82
198.3981,-54.38
198.4981,-55.51
198.5981,-55.23
198.6981,-54.57
198.7981,-54.19
198.8981,-52.97
198.9981,-52.12
199.0981,-52.12
199.1981,-52.03
199.2981,-52.97
199.3981,-54.47
199.4981,-55.79
199.5981,-55.79
199.6981,-56.54
199.7981,-57.02
199.8981,-55.89
199.9981,-54.47
200.0981,-53.91
200.1981,-54.47
200.2981,-52.22
200.3981,-52.03
200.4981,-50.52
200.5981,-52.12
200.6981,-52.5
200.7981,-52.87
200.8981,-53.06
200.9981,-53.53
201.0981,-55.79
201.1981,-57.49
201.2981,-57.3
201.3981,-55.7
201.4981,-54.0
201.5981,-54.94
201.6981,-54.76
201.7981,-52.5
201.8981,-52.59
201.9981,-51.65
202.0981,-52.12
202.1981,-52.22
202.2981,-53.53
202.3981,-54.94
202.4981,-55.13
202.5981,-54.85
202.6981,-54.57
202.7981,-54.85
202.8981,-53.25
202.9981,-52.78
203.0981,-52.78
203.1981,-52.78
203.2981,-53.16
203.3981,-53.63
203.4981,-54.47
203.5981,-55.04
203.6981,-53.91
203.7981,-54.94
203.8981,-56.45
203.9981,-56.36
204.0981,-55.04
204.1981,-53.82
204.2981,-50.99
204.3981,-50.33
204.4981,-52.22
204.5981,-50.8
204.6981,-51.37
204.7981,-52.5
204.8981,-53.25
204.9981,-54.94
205.0981,-56.17
205.1981,-57.67
205.2981,-57.39
205.3981,-55.79
205.4981,-54.66
205.5981,-53.16
205.6981,-52.5
205.7981,-52.12
205.8981,-51.65
205.9981,-53.34
206.0981,-52.97
206.1981,-52.03
206.2981,-53.91
206.3981,-54.0
206.4981,-54.66
206.5981,-55.42
206.6981,-55.51
206.7981,-55.7
206.8981,-55.42
206.9981,-54.1
207.0981,-52.87
207.1981,-52.4
207.2981,-52.59
207.3981,-53.53
207.4981,-54.19
207.5981,-54.19
207.6981,-54.38
207.7981,-55.51
207.8981,-54.76
207.9981,-53.16
208.0981,-54.0
208.1981,-54.57
208.2981,-53.06
208.3981,-52.5
208.4981,-51.37
208.5981,-51.56
208.6981,-52.22
208.7981,-52.12
208.8981,-53.53
208.9981,-54.66
209.0981,-55.13
209.1981,-57.67
209.2981,-57.11
209.3981,-56.17
209.4981,-55.79
209.5981,-54.0
209.6981,-51.37
209.7981,-51.84
209.8981,-50.8
209.9981,-50.62
210.0981,-51.93
210.1981,-53.25
210.2981,-54.47
210.3981,-53.34
210.4981,-53.53
210.5981,-55.13
210.6981,-55.7
210.7981,-55.7
210.8981,-54.85
210.9981,-53.91
211.0981,-54.66
211.1981,-52.59
211.2981,-52.12
211.3981,-52.69
211.4981,-52.59
211.5981,-54.38
211.6981,-53.34
211.7981,-55.32
211.8981,-55.98
211.9981,-55.42
212.0981,-54.94
212.1981,-54.38
212.2981,-53.63
212.3981,-53.06
212.4981,-51.93
212.5981,-50.99
212.6981,-51.37
212.7981,-53.16
212.8981,-53.25
212.9981,-55.7
213.0981,-57.11
213.1981,-57.2
213.2981,-56.83
213.3981,-55.42
213.4981,-54.76
213.5981,-52.97
213.6981,-51.74
213.7981,-51.56
213.8981,-52.12
213.9981,-52.87
214.0981,-51.27
214.1981,-52.5
214.2981,-52.12
214.3981,-52.03
214.4981,-54.1
214.5981,-55.23
214.6981,-56.45
214.7981,-58.05
214.8981,-57.11
214.9981,-55.42
215.0981,-54.85
215.1981,-53.16
215.2981,-51.93
215.3981,-51.84
215.4981,-52.03
215.5981,-52.22
215.6981,-52.78
215.7981,-53.25
215.8981,-54.19
215.9981,-55.13
216.0981,-55.98
216.1981,-54.0
216.2981,-53.91
216.3981,-53.53
216.4981,-53.72
216.5981,-54.38
216.6981,-52.5
216.7981,-53.25
216.8981,-53.91
216.9981,-53.82
217.0981,-54.19
217.1981,-55.89
217.2981,-57.02
217.3981,-57.11
217.4981,-55.51
217.5981,-54.29
217.6981,-53.16
217.7981,-52.31
217.8981,-52.31
217.9981,-51.93
218.0981,-51.74
218.1981,-50.99
218.2981,-51.84
218.3981,-53.63
218.4981,-54.94
218.5981,-55.89
218.6981,-55.89
218.7981,-56.92
218.8981,-56.17
218.9981,-54.94
219.0981,-53.72
219.1981,-53.63
219.2981,-51.37
219.3981,-49.02
219.4981,-49.67
219.5981,-51.09
219.6981,-50.71
219.7981,-51.37
219.8981,-52.22
219.9981,-54.38
220.0981,-56.73
220.1981,-56.36
220.2981,-54.94
220.3981,-54.19
220.4981,-53.72
220.5981,-53.53
220.6981,-53.34
220.7981,-53.63
220.8981,-56.07
220.9981,-53.91
221.0981,-54.1
221.1981,-54.94
221.2981,-54.66
221.3981,-54.94
221.4981,-54.94
221.5981,-54.66
221.6981,-53.63
221.7981,-54.1
221.8981,-53.44
221.9981,-52.87
222.0981,-53.72
222.1981,-53.53
222.2981,-53.63
222.3981,-53.44
222.4981,-53.34
222.5981,-54.0
222.6981,-56.36
222.7981,-57.02
222.8981,-56.83
222.9981,-56.83
223.0981,-55.42
223.1981,-54.94
223.2981,-53.34
223.3981,-51.65
223.4981,-50.99
223.5981,-50.33
223.6981,-51.27
223.7981,-52.59
223.8981,-52.87
223.9981,-54.29
224.0981,-55.98
224.1981,-54.76
224.2981,-54.66
224.3981,-56.07
224.4981,-54.94
224.5981,-54.57
224.6981,-54.66
224.7981,-53.72
224.8981,-53.16
224.9981,-53.16
225.0981,-52.78
225.1981,-52.87
225.2981,-54.94
225.3981,-56.07
225.4981,-54.94
225.5981,-54.29
225.6981,-53.91
225.7981,-53.91
225.8981,-52.69
225.9981,-51.37
226.0981,-52.59
226.1981,-51.84
226.2981,-51.74
226.3981,-53.25
226.4981,-54.38
226.5981,-54.66
226.6981,-56.07
226.7981,-57.11
226.8981,-59.18
226.9981,-56.45
227.0981,-55.23
227.1981,-55.42
227.2981,-53.72
227.3981,-52.22
227.4981,-51.46
227.5981,-52.31
227.6981,-51.37
227.7981,-50.8
227.8981,-52.03
227.9981,-53.82
228.0981,-55.42
228.1981,-57.3
228.2981,-57.77
228.3981,-57.2
228.4981,-56.17
228.5981,-54.38
228.6981,-52.12
228.7981,-53.06
228.8981,-52.69
228.9981,-52.12
229.0981,-52.12
229.1981,-53.16
229.2981,-54.19
229.3981,-53.53
229.4981,-54.76
229.5981,-55.7
229.6981,-54.66
229.7981,-55.13
229.8981,-55.13
229.9981,-54.19
230.0981,-52.97
230.1981,-51.27
230.2981,-51.84
230.3981,-53.34
230.4981,-52.87
230.5981,-55.04
230.6981,-56.45
230.7981,-57.2
230.8981,-58.9
230.9981,-57.58
231.0981,-55.42
231.1981,-53.06
231.2981,-52.4
231.3981,-53.53
231.4981,-52.4
231.5981,-51.56
231.6981,-50.99
231.7981,-52.31
231.8981,-53.34
231.9981,-54.47
232.0981,-54.66
232.1981,-55.51
232.2981,-54.85
232.3981,-55.7
232.4981,-54.94
232.5981,-54.19
232.6981,-53.72
232.7981,-53.06
232.8981,-53.34
232.9981,-51.84
233.0981,-50.99
233.1981,-52.22
233.2981,-52.03
233.3981,-52.4
233.4981,-53.63
233.5981,-54.76
233.6981,-55.89
233.7981,-55.98
233.8981,-55.98
233.9981,-54.1
234.0981,-54.19
234.1981,-53.63
234.2981,-53.53
234.3981,-53.72
234.4981,-54.66
234.5981,-55.98
234.6981,-55.23
234.7981,-54.19
234.8981,-54.66
234.9981,-54.1
235.0981,-53.91
235.1981,-54.85
235.2981,-53.63
235.3981,-52.87
235.4981,-51.46
235.5981,-51.65
235.6981,-52.59
235.7981,-52.59
235.8981,-51.74
235.9981,-52.22
236.0981,-53.06
236.1981,-56.92
236.2981,-56.73
236.3981,-57.2
236.4981,-56.92
236.5981,-56.36
236.6981,-54.0
236.7981,-52.4
236.8981,-51.74
236.9981,-52.87
237.0981,-51.56
237.1981,-51.93
237.2981,-53.44
237.3981,-54.47
237.4981,-55.51
237.5981,-54.85
237.6981,-54.85
237.7981,-55.89
237.8981,-56.73
237.9981,-56.73
238.0981,-55.04
238.1981,-53.44
238.2981,-54.0
238.3981,-53.72
238.4981,-51.27
238.5981,-51.65
238.6981,-53.25
238.7981,-53.34
238.8981,-55.04
238.9981,-57.67
239.0981,-56.92
239.1981,-55.98
239.2981,-55.6
239.3981,-54.1
239.4981,-51.74
239.5981,-52.22
239.6981,-51.93
239.7981,-53.34
239.8981,-54.57
239.9981,-56.07
240.0981,-55.04
240.1981,-55.04
240.2981,-56.17
240.3981,-56.45
240.4981,-55.89
240.5981,-55.98
240.6981,-55.89
240.7981,-52.4
240.8981,-52.12
240.9981,-52.69
241.0981,-51.18
241.1981,-51.65
241.2981,-52.22
241.3981,-53.34
241.4981,-53.34
241.5981,-54.47
241.6981,-56.17
241.7981,-56.83
241.8981,-55.7
241.9981,-56.73
242.0981,-55.04
242.1981,-53.44
242.2981,-53.72
242.3981,-54.1
242.4981,-53.53
242.5981,-53.82
242.6981,-52.5
242.7981,-52.59
242.8981,-52.4
242.9981,-53.25
243.0981,-54.76
243.1981,-56.17
243.2981,-56.17
243.3981,-56.64
243.4981,-55.04
243.5981,-53.16
243.6981,-53.16
243.7981,-53.06
243.8981,-54.19
243.9981,-54.0
244.0981,-54.19
244.1981,-55.04
244.2981,-56.36
244.3981,-55.6
244.4981,-54.94
244.5981,-56.07
244.6981,-55.04
244.7981,-54.1
244.8981,-53.06
244.9981,-53.63
245.0981,-54.47
245.1981,-54.19
245.2981,-53.63
245.3981,-52.4
245.4981,-53.63
245.5981,-54.47
245.6981,-55.98
245.7981,-58.14
245.8981,-58.14
245.9981,-56.45
246.0981,-56.07
246.1981,-55.13
246.2981,-53.72
246.3981,-54.94
246.4981,-53.91
246.5981,-52.78
246.6981,-53.91
246.7981,-54.29
246.8981,-53.63
246.9981,-54.57
247.0981,-54.94
247.1981,-55.13
247.2981,-55.79
247.3981,-55.13
247.4981,-55.51
247.5981,-53.63
247.6981,-53.16
247.7981,-54.29
247.8981,-55.13
247.9981,-53.63
248.0981,-53.91
248.1981,-54.76
248.2981,-55.51
248.3981,-55.13
248.4981,-55.7
248.5981,-55.7
248.6981,-54.57
248.7981,-55.42
248.8981,-54.1
248.9981,-51.56
249.0981,-52.03
249.1981,-52.97
249.2981,-54.19
249.3981,-54.38
249.4981,-54.57
249.5981,-54.0
249.6981,-56.26
249.7981,-57.96
249.8981,-58.24
249.9981,-56.92
250.0981,-56.64
250.1981,-55.04
250.2981,-54.66
250.3981,-53.44
250.4981,-52.31
250.5981,-51.65
250.6981,-52.12
250.7981,-52.31
250.8981,-53.72
250.9981,-53.34
251.0981,-52.4
251.1981,-53.53
251.2981,-55.6
251.3981,-56.36
251.4981,-56.36
251.5981,-56.45
251.6981,-54.94
251.7981,-53.34
251.8981,-54.0
251.9981,-53.63
252.0981,-52.59
252.1981,-54.19
252.2981,-55.23
252.3981,-56.17
252.4981,-57.02
252.5981,-55.13
252.6981,-55.23
252.7981,-56.73
252.8981,-55.42
252.9981,-54.19
253.0981,-54.38
253.1981,-53.82
253.2981,-53.53
253.3981,-54.1
253.4981,-54.66
253.5981,-55.23
253.6981,-56.83
253.7981,-55.42
253.8981,-55.79
253.9981,-56.26
254.0981,-55.42
254.1981,-56.17
254.2981,-54.19
254.3981,-53.44
254.4981,-52.4
254.5981,-53.06
254.6981,-53.44
254.7981,-53.82
254.8981,-53.82
254.9981,-53.34
255.0981,-54.1
255.1981,-54.38
255.2981,-56.54
255.3981,-57.39
255.4981,-57.3
255.5981,-57.2
255.6981,-56.17
255.7981,-54.66
255.8981,-52.69
255.9981,-52.5
256.0981,-52.03
256.1981,-52.03
256.2981,-52.5
256.3981,-53.53
256.4981,-53.63
256.5981,-53.34
256.6981,-54.0
256.7981,-55.79
256.8981,-56.07
256.9981,-55.98
257.0981,-55.51
257.1981,-54.1
257.2981,-52.31
257.3981,-51.65
257.4981,-52.78
257.5981,-53.25
257.6981,-54.85
257.7981,-55.6
257.8981,-57.02
257.9981,-55.98
258.0981,-55.7
258.1981,-55.98
258.2981,-55.32
258.3981,-52.78
258.4981,-52.78
258.5981,-52.03
258.6981,-51.37
258.7981,-52.59
258.8981,-51.65
258.9981,-53.34
259.0981,-54.1
259.1981,-54.47
259.2981,-54.94
259.3981,-56.26
259.4981,-57.86
259.5981,-58.43
259.6981,-57.11
259.7981,-55.51
259.8981,-54.76
259.9981,-54.66
260.0981,-53.16
260.1981,-51.84
260.2981,-52.22
260.3981,-52.87
260.4981,-53.25
260.5981,-54.1
260.6981,-55.79
260.7981,-56.17
260.8981,-56.64
260.9981,-56.26
261.0981,-56.07
261.1981,-54.85
261.2981,-54.76
261.3981,-53.16
261.4981,-52.69
261.5981,-54.1
261.6981,-53.91
261.7981,-55.04
261.8981,-55.32
261.9981,-56.36
262.0981,-56.64
262.1981,-55.98
262.2981,-54.85
262.3981,-54.1
262.4981,-53.53
262.5981,-53.44
262.6981,-53.72
262.7981,-54.66
262.8981,-53.82
262.9981,-52.31
263.0981,-53.16
263.1981,-55.04
263.2981,-56.07
263.3981,-56.73
263.4981,-58.05
263.5981,-57.2
263.6981,-55.89
263.7981,-56.26
263.8981,-55.32
263.9981,-54.38
264.0981,-53.82
264.1981,-54.19
264.2981,-54.0
264.3981,-52.69
264.4981,-51.46
264.5981,-53.25
264.6981,-54.76
264.7981,-57.2
264.8981,-58.33
264.9981,-57.02
265.0981,-56.26
265.1981,-57.2
265.2981,-55.13
265.3981,-54.1
265.4981,-53.72
265.5981,-54.0
265.6981,-54.38
265.7981,-53.63
265.8981,-55.04
265.9981,-55.79
266.0981,-56.83
266.1981,-57.58
266.2981,-57.02
266.3981,-57.11
266.4981,-55.04
266.5981,-53.34
266.6981,-53.82
266.7981,-54.57
266.8981,-55.23
266.9981,-55.79
267.0981,-54.94
267.1981,-55.51
267.2981,-56.45
267.3981,-55.51
267.4981,-56.07
267.5981,-55.51
267.6981,-56.45
267.7981,-56.36
267.8981,-54.85
267.9981,-53.34
268.0981,-53.82
268.1981,-52.69
268.2981,-52.5
268.3981,-53.25
268.4981,-53.63
268.5981,-53.06
268.6981,-54.94
268.7981,-57.49
268.8981,-57.49
268.9981,-58.33
269.0981,-56.64
269.1981,-54.85
269.2981,-55.42
269.3981,-55.23
269.4981,-54.29
269.5981,-53.63
269.6981,-53.82
269.7981,-53.91
269.8981,-54.38
269.9981,-54.85
270.0981,-55.04
270.1981,-55.7
270.2981,-55.7
270.3981,-56.36
270.4981,-55.79
270.5981,-55.98
270.6981,-55.89
270.7981,-55.6
270.8981,-54.47
270.9981,-54.1
271.0981,-53.25
271.1981,-55.04
271.2981,-55.32
271.3981,-56.64
271.4981,-55.98
271.5981,-57.3
271.6981,-56.83
271.7981,-56.07
271.8981,-54.38
271.9981,-53.91
272.0981,-54.1
272.1981,-54.57
272.2981,-54.38
272.3981,-53.91
272.4981,-54.38
272.5981,-54.1
272.6981,-55.79
272.7981,-56.73
272.8981,-57.39
272.9981,-57.3
273.0981,-56.83
273.1981,-55.98
273.2981,-56.17
273.3981,-56.17
273.4981,-55.98
273.5981,-52.59
273.6981,-52.78
273.7981,-52.69
273.8981,-52.87
273.9981,-54.1
274.0981,-56.83
274.1981,-56.17
274.2981,-55.98
274.3981,-55.42
274.4981,-55.89
274.5981,-56.07
274.6981,-54.85
274.7981,-56.26
274.8981,-55.51
274.9981,-54.66
275.0981,-54.85
275.1981,-56.17
275.2981,-55.51
275.3981,-55.23
275.4981,-56.64
275.5981,-57.39
275.6981,-56.36
275.7981,-56.54
275.8981,-57.02
275.9981,-54.76
276.0981,-52.87
276.1981,-54.29
276.2981,-55.79
276.3981,-52.78
276.4981,-52.5
276.5981,-55.04
276.6981,-54.1
276.7981,-56.45
276.8981,-59.37
276.9981,-59.37
277.0981,-58.24
277.1981,-57.2
277.2981,-57.39
277.3981,-56.54
277.4981,-55.6
277.5981,-54.47
277.6981,-55.6
277.7981,-54.19
277.8981,-53.53
277.9981,-54.47
278.0981,-54.66
278.1981,-55.32
278.2981,-57.39
278.3981,-56.92
278.4981,-57.11
278.5981,-58.33
278.6981,-57.02
278.7981,-58.24
278.8981,-54.94
278.9981,-54.94
279.0981,-54.57
279.1981,-55.04
279.2981,-56.45
279.3981,-56.36
279.4981,-56.26
279.5981,-56.64
279.6981,-56.54
279.7981,-54.29
279.8981,-54.38
279.9981,-55.13
280.0981,-55.42
280.1981,-56.83
280.2981,-55.32
280.3981,-55.42
280.4981,-56.07
280.5981,-56.83
280.6981,-56.36
280.7981,-55.32
280.8981,-57.11
280.9981,-57.3
281.0981,-58.43
281.1981,-58.8
281.2981,-57.49
281.3981,-57.02
281.4981,-55.32
281.5981,-52.97
281.6981,-52.4
281.7981,-52.59
281.8981,-54.29
281.9981,-55.32
282.0981,-54.19
282.1981,-56.07
282.2981,-56.54
282.3981,-57.39
282.4981,-58.24
282.5981,-58.14
282.6981,-57.11
282.7981,-56.73
282.8981,-57.77
282.9981,-57.39
283.0981,-55.51
283.1981,-55.32
283.2981,-55.89
283.3981,-55.51
283.4981,-55.51
283.5981,-55.32
283.6981,-56.36
283.7981,-56.92
283.8981,-55.6
283.9981,-55.7
284.0981,-57.77
284.1981,-57.58
284.2981,-55.32
284.3981,-54.1
284.4981,-55.32
284.5981,-57.77
284.6981,-56.17
284.7981,-56.07
284.8981,-57.39
284.9981,-58.9
285.0981,-57.49
285.1981,-57.2
285.2981,-58.24
285.3981,-55.89
285.4981,-55.42
285.5981,-55.42
285.6981,-57.11
285.7981,-55.79
285.8981,-54.66
285.9981,-54.1
286.0981,-53.82
286.1981,-55.51
286.2981,-56.07
286.3981,-57.96
286.4981,-57.58
286.5981,-57.58
286.6981,-58.71
286.7981,-58.05
286.8981,-57.11
286.9981,-56.73
287.0981,-54.47
287.1981,-53.91
287.2981,-54.1
287.3981,-54.1
287.4981,-54.1
287.5981,-55.79
287.6981,-56.36
287.7981,-56.45
287.8981,-57.58
287.9981,-57.86
288.0981,-55.79
288.1981,-57.2
288.2981,-57.3
288.3981,-56.92
288.4981,-55.79
288.5981,-56.36
288.6981,-55.98
288.7981,-54.94
288.8981,-57.58
288.9981,-57.58
289.0981,-56.92
289.1981,-57.49
289.2981,-57.11
289.3981,-56.92
289.4981,-55.98
289.5981,-55.42
289.6981,-55.79
289.7981,-55.13
289.8981,-52.87
289.9981,-52.4
290.0981,-54.1
290.1981,-54.76
290.2981,-57.02
290.3981,-58.05
290.4981,-58.24
290.5981,-57.86
290.6981,-57.96
290.7981,-57.49
290.8981,-56.26
290.9981,-55.7
291.0981,-55.6
291.1981,-55.7
291.2981,-55.98
291.3981,-54.85
291.4981,-55.23
291.5981,-55.13
291.6981,-55.23
291.7981,-56.36
291.8981,-57.49
291.9981,-58.9
292.0981,-58.33
292.1981,-57.67
292.2981,-57.2
292.3981,-56.26
292.4981,-56.54
292.5981,-55.79
292.6981,-54.47
292.7981,-54.85
292.8981,-54.94
292.9981,-56.26
293.0981,-56.26
293.1981,-57.58
293.2981,-57.77
293.3981,-56.73
293.4981,-56.83
293.5981,-57.77
293.6981,-56.17
293.7981,-55.6
293.8981,-55.32
293.9981,-55.79
294.0981,-56.26
294.1981,-57.2
294.2981,-57.3
294.3981,-59.27
294.4981,-59.09
294.5981,-56.73
294.6981,-56.73
294.7981,-57.67
294.8981,-57.86
294.9981,-55.89
295.0981,-55.32
295.1981,-55.04
295.2981,-54.66
295.3981,-53.34
295.4981,-54.1
295.5981,-56.07
295.6981,-55.79
295.7981,-56.26
295.8981,-57.2
295.9981,-57.11
296.0981,-57.49
296.1981,-56.73
296.2981,-57.11
296.3981,-56.54
296.4981,-56.36
296.5981,-55.51
296.6981,-54.76
296.7981,-54.1
296.8981,-54.57
296.9981,-54.38
297.0981,-55.04
297.1981,-57.49
297.2981,-56.83
297.3981,-57.86
297.4981,-57.2
297.5981,-57.3
297.6981,-57.58
297.7981,-56.54
297.8981,-55.04
297.9981,-54.85
298.0981,-55.04
298.1981,-55.79
298.2981,-57.02
298.3981,-57.58
298.4981,-59.37
298.5981,-58.99
298.6981,-58.71
298.7981,-58.43
298.8981,-58.33
298.9981,-57.39
299.8981,-82.52
299.9981,-55.13
300.0981,-54.66
300.1981,-54.29
300.2981,-54.94
300.3981,-55.04
300.4981,-52.78
300.5981,-53.16
300.6981,-54.85
300.7981,-54.85
300.8981,-55.79
300.9981,-57.2
301.0981,-58.24
301.1981,-58.8
301.2981,-58.8
301.3981,-58.33
301.4981,-57.49
301.5981,-56.26
301.6981,-54.29
301.7981,-53.44
301.8981,-54.38
301.9981,-57.02
302.0981,-57.11
302.1981,-56.92
302.2981,-56.92
302.3981,-56.45
302.4981,-57.86
302.5981,-56.26
302.6981,-56.92
302.7981,-56.73
302.8981,-56.83
302.9981,-56.64
303.0981,-57.02
303.1981,-56.73
303.2981,-55.89
303.3981,-57.02
303.4981,-56.17
303.5981,-56.45
303.6981,-56.92
303.7981,-59.18
303.8981,-58.43
303.9981,-57.96
304.0981,-58.43
304.1981,-55.6
304.2981,-55.6
304.3981,-56.26
304.4981,-56.36
304.5981,-54.66
304.6981,-56.07
304.7981,-57.58
304.8981,-58.14
304.9981,-57.86
305.0981,-57.58
305.1981,-56.73
305.2981,-57.11
305.3981,-58.14
305.4981,-58.05
305.5981,-55.89
305.6981,-54.57
305.7981,-54.76
305.8981,-55.23
305.9981,-55.32
306.0981,-55.23
306.1981,-55.6
306.2981,-56.83
306.3981,-57.86
306.4981,-57.58
306.5981,-56.92
306.6981,-58.52
306.7981,-58.24
306.8981,-58.24
306.9981,-56.83
307.0981,-57.02
307.1981,-56.64
307.2981,-55.04
307.3981,-57.39
307.4981,-58.14
307.5981,-58.24
307.6981,-59.37
307.7981,-57.39
307.8981,-56.07
307.9981,-55.32
308.0981,-56.17
308.1981,-56.26
308.2981,-55.98
308.3981,-56.73
308.4981,-56.54
308.5981,-55.42
308.6981,-55.23
308.7981,-55.42
308.8981,-55.7
308.9981,-55.79
309.0981,-56.73
309.1981,-58.14
309.2981,-58.71
309.3981,-58.24
309.4981,-56.83
309.5981,-57.3
309.6981,-56.36
309.7981,-54.94
309.8981,-54.66
309.9981,-55.42
310.0981,-55.79
310.1981,-55.6
310.2981,-56.73
310.3981,-58.05
310.4981,-58.43
310.5981,-58.43
310.6981,-58.43
310.7981,-56.83
310.8981,-57.67
310.9981,-58.43
311.0981,-57.02
311.1981,-56.54
311.2981,-56.07
311.3981,-55.98
311.4981,-55.04
311.5981,-55.32
311.6981,-54.94
311.7981,-56.45
311.8981,-58.71
311.9981,-57.3
312.0981,-57.02
312.1981,-57.02
312.2981,-56.92
312.3981,-57.39
312.4981,-58.43
312.5981,-57.02
312.6981,-57.2
312.7981,-56.83
312.8981,-57.39
312.9981,-58.05
313.0981,-57.77
313.1981,-57.49
313.2981,-56.36
313.3981,-56.54
313.4981,-58.9
313.5981,-57.2
313.6981,-54.66
313.7981,-54.19
313.8981,-55.98
313.9981,-55.7
314.0981,-55.04
314.1981,-55.51
314.2981,-57.3
314.3981,-57.39
314.4981,-57.11
314.5981,-58.52
314.6981,-60.12
314.7981,-58.43
314.8981,-59.18
314.9981,-58.24
315.0981,-56.92
315.1981,-58.05
315.2981,-56.83
315.3981,-55.04
315.4981,-55.6
315.5981,-56.83
315.6981,-56.26
315.7981,-55.98
315.8981,-55.51
315.9981,-56.07
316.0981,-57.11
316.1981,-58.71
316.2981,-58.8
316.3981,-57.58
316.4981,-56.17
316.5981,-56.64
316.6981,-56.07
316.7981,-56.26
316.8981,-55.89
316.9981,-57.02
317.0981,-58.05
317.1981,-60.03
317.2981,-58.9
317.3981,-57.67
317.4981,-58.52
317.5981,-58.24
317.6981,-55.89
317.7981,-55.42
317.8981,-56.83
317.9981,-56.54
318.0981,-57.3
318.1981,-57.96
318.2981,-57.3
318.3981,-57.39
318.4981,-58.33
318.5981,-57.77
318.6981,-57.77
318.7981,-56.73
318.8981,-57.49
318.9981,-58.52
319.0981,-57.86
319.1981,-57.58
319.2981,-56.45
319.3981,-54.76
319.4981,-55.32
319.5981,-55.04
319.6981,-55.98
319.7981,-55.79
319.8981,-55.04
319.9981,-55.13
320.0981,-57.77
320.1981,-58.43
320.2981,-58.24
320.3981,-59.84
320.4981,-59.84
320.5981,-59.37
320.6981,-56.64
320.7981,-56.45
320.8981,-56.17
320.9981,-58.05
321.0981,-57.77
321.1981,-57.3
321.2981,-58.14
321.3981,-58.8
321.4981,-58.43
321.5981,-58.33
321.6981,-58.43
321.7981,-58.05
321.8981,-57.67
321.9981,-56.83
322.0981,-57.2
322.1981,-55.79
322.2981,-56.73
322.3981,-56.73
322.4981,-55.79
322.5981,-57.58
322.6981,-58.8
322.7981,-58.24
322.8981,-59.09
322.9981,-57.39
323.0981,-56.26
323.1981,-55.7
323.2981,-56.54
323.3981,-55.98
323.4981,-56.17
323.5981,-56.36
323.6981,-56.64
323.7981,-57.3
323.8981,-58.05
323.9981,-57.11
324.0981,-58.05
324.1981,-58.33
324.2981,-58.14
324.3981,-57.96
324.4981,-57.02
324.5981,-58.05
324.6981,-57.39
324.7981,-57.11
324.8981,-57.02
324.9981,-55.42
325.0981,-55.51
325.1981,-56.26
325.2981,-57.3
325.3981,-57.58
325.4981,-57.86
325.5981,-57.49
325.6981,-57.02
325.7981,-57.11
325.8981,-56.07
325.9981,-55.6
326.0981,-56.64
326.1981,-56.36
326.2981,-56.83
326.3981,-57.58
326.4981,-56.73
326.5981,-57.67
326.6981,-58.33
326.7981,-57.39
326.8981,-56.83
326.9981,-58.24
327.0981,-57.39
327.1981,-58.14
327.2981,-58.24
327.3981,-56.26
327.4981,-55.23
327.5981,-54.19
327.6981,-55.32
327.7981,-56.17
327.8981,-58.05
327.9981,-59.18
328.0981,-59.18
328.1981,-59.18
328.2981,-59.46
328.3981,-58.9
328.4981,-58.99
328.5981,-58.33
328.6981,-56.64
328.7981,-56.26
328.8981,-56.07
328.9981,-56.45
329.0981,-56.92
329.1981,-56.64
329.2981,-56.26
329.3981,-56.07
329.4981,-57.02
329.5981,-57.2
329.6981,-57.49
329.7981,-58.33
329.8981,-58.33
329.9981,-58.71
330.0981,-58.24
330.1981,-59.84
330.2981,-58.52
330.3981,-56.83
330.4981,-57.77
330.5981,-58.14
330.6981,-57.3
330.7981,-57.86
330.8981,-57.67
330.9981,-57.39
331.0981,-57.67
331.1981,-56.83
331.2981,-56.73
331.3981,-57.77
331.4981,-57.2
331.5981,-57.02
331.6981,-56.45
331.7981,-55.89
331.8981,-56.36
331.9981,-56.54
332.0981,-56.73
332.1981,-57.39
332.2981,-57.77
332.3981,-58.43
332.4981,-58.62
332.5981,-58.8
332.6981,-57.02
332.7981,-55.89
332.8981,-55.79
332.9981,-55.79
333.0981,-56.07
333.1981,-55.32
333.2981,-56.54
333.3981,-57.58
333.4981,-56.45
333.5981,-57.11
333.6981,-58.24
333.7981,-57.3
333.8981,-58.71
333.9981,-58.8
334.0981,-58.52
334.1981,-57.49
334.2981,-56.64
334.3981,-56.92
334.4981,-57.02
334.5981,-57.39
334.6981,-58.14
334.7981,-57.58
334.8981,-56.73
334.9981,-57.67
335.0981,-58.62
335.1981,-58.9
335.2981,-58.43
335.3981,-57.86
335.4981,-58.33
335.5981,-58.14
335.6981,-56.54
335.7981,-57.11
335.8981,-57.96
335.9981,-56.64
336.0981,-56.17
336.1981,-58.14
336.2981,-57.96
336.3981,-56.73
336.4981,-57.2
336.5981,-57.67
336.6981,-58.33
336.7981,-58.62
336.8981,-57.49
336.9981,-57.77
337.0981,-58.8
337.1981,-57.3
337.2981,-56.45
337.3981,-57.02
337.4981,-57.39
337.5981,-57.39
337.6981,-58.52
337.7981,-58.52
337.8981,-57.86
337.9981,-57.02
338.0981,-56.54
338.1981,-57.67
338.2981,-56.83
338.3981,-56.36
338.4981,-56.64
338.5981,-59.27
338.6981,-57.67
338.7981,-57.67
338.8981,-57.58
338.9981,-58.62
339.0981,-56.73
339.1981,-57.02
339.2981,-58.8
339.3981,-59.37
339.4981,-57.2
339.5981,-56.73
339.6981,-56.64
339.7981,-57.3
339.8981,-57.3
339.9981,-57.96
340.0981,-56.92
340.1981,-57.49
340.2981,-58.71
340.3981,-58.52
340.4981,-57.58
340.5981,-58.8
340.6981,-59.56
340.7981,-57.67
340.8981,-57.77
340.9981,-55.98
341.0981,-54.94
341.1981,-54.76
341.2981,-55.32
341.3981,-55.6
341.4981,-57.2
341.5981,-58.71
341.6981,-57.86
341.7981,-57.96
341.8981,-58.71
341.9981,-58.33
342.0981,-57.86
342.1981,-57.39
342.2981,-57.11
342.3981,-57.02
342.4981,-55.79
342.5981,-55.98
342.6981,-56.45
342.7981,-56.92
342.8981,-56.64
342.9981,-58.05
343.0981,-57.2
343.1981,-57.67
343.2981,-59.65
343.3981,-58.71
343.4981,-57.3
343.5981,-58.43
343.6981,-58.62
343.7981,-57.86
343.8981,-57.2
343.9981,-56.17
344.0981,-57.77
344.1981,-58.33
344.2981,-58.05
344.3981,-56.92
344.4981,-57.2
344.5981,-57.3
344.6981,-56.92
344.7981,-56.83
344.8981,-56.92
344.9981,-57.49
345.0981,-56.64
345.1981,-57.39
345.2981,-55.89
345.3981,-58.14
345.4981,-59.93
345.5981,-59.09
345.6981,-58.05
345.7981,-59.37
345.8981,-58.62
345.9981,-57.77
346.0981,-57.96
346.1981,-55.98
346.2981,-57.58
346.3981,-57.96
346.4981,-57.67
346.5981,-57.39
346.6981,-56.54
346.7981,-57.96
346.8981,-58.14
346.9981,-57.77
347.0981,-57.67
347.1981,-58.52
347.2981,-58.33
347.3981,-57.3
347.4981,-59.27
347.5981,-58.71
347.6981,-58.05
347.7981,-58.71
347.8981,-58.05
347.9981,-57.96
348.0981,-57.2
348.1981,-58.05
348.2981,-58.43
348.3981,-56.83
348.4981,-57.2
348.5981,-59.37
348.6981,-58.33
348.7981,-58.24
348.8981,-57.2
348.9981,-56.92
349.0981,-57.3
349.1981,-57.49
349.2981,-57.3
349.3981,-57.02
349.4981,-56.83
349.5981,-58.99
349.6981,-59.46
349.7981,-57.96
349.8981,-58.62
349.9981,-58.05
350.0981,-57.49
350.1981,-56.92
350.2981,-57.11
350.3981,-58.62
350.4981,-59.27
350.5981,-59.46
350.6981,-56.26
350.7981,-56.73
350.8981,-58.14
350.9981,-58.52
351.0981,-59.46
351.1981,-57.96
351.2981,-58.43
351.3981,-57.86
351.4981,-58.8
351.5981,-58.62
351.6981,-59.09
351.7981,-58.14
351.8981,-57.39
351.9981,-56.92
352.0981,-58.9
352.1981,-58.71
352.2981,-57.49
352.3981,-57.49
352.4981,-58.05
352.5981,-57.77
352.6981,-58.24
352.7981,-57.58
352.8981,-57.49
352.9981,-57.77
353.0981,-57.3
353.1981,-57.49
353.2981,-58.52
353.3981,-58.14
353.4981,-56.26
353.5981,-57.2
353.6981,-57.49
353.7981,-58.43
353.8981,-59.84
353.9981,-59.65
354.0981,-57.77
354.1981,-57.58
354.2981,-57.3
354.3981,-57.02
354.4981,-56.92
354.5981,-57.3
354.6981,-57.11
354.7981,-57.86
354.8981,-58.14
354.9981,-59.09
355.0981,-59.46
355.1981,-58.99
355.2981,-57.39
355.3981,-57.58
355.4981,-56.73
355.5981,-58.14
355.6981,-59.27
355.7981,-58.62
355.8981,-57.96
355.9981,-57.49
356.0981,-58.14
356.1981,-58.14
356.2981,-55.89
356.3981,-56.83
356.4981,-57.58
356.5981,-58.43
356.6981,-59.09
356.7981,-58.8
356.8981,-57.49
356.9981,-58.14
357.0981,-57.49
357.1981,-57.49
357.2981,-57.49
357.3981,-59.27
357.4981,-60.21
357.5981,-58.33
357.6981,-58.52
357.7981,-58.62
357.8981,-59.37
357.9981,-58.9
358.0981,-57.2
358.1981,-59.09
358.2981,-58.9
358.3981,-59.56
358.4981,-58.8
358.5981,-59.27
358.6981,-58.8
358.7981,-57.67
358.8981,-58.43
358.9981,-57.49
359.0981,-59.27
359.1981,-57.2
359.2981,-58.33
359.3981,-60.5
359.4981,-58.9
359.5981,-58.14
359.6981,-57.2
359.7981,-57.49
359.8981,-56.64
359.9981,-57.02
360.0981,-57.86
360.1981,-57.86
360.2981,-57.58
360.3981,-57.86
360.4981,-58.33
360.5981,-58.43
360.6981,-57.77
360.7981,-57.67
360.8981,-58.62
360.9981,-58.62
361.0981,-57.86
361.1981,-59.56
361.2981,-60.59
361.3981,-58.99
361.4981,-58.14
361.5981,-58.71
361.6981,-59.18
361.7981,-57.86
361.8981,-57.86
361.9981,-58.9
362.0981,-58.9
362.1981,-58.24
362.2981,-57.77
362.3981,-58.14
362.4981,-57.67
362.5981,-57.3
362.6981,-57.58
362.7981,-57.77
362.8981,-58.9
362.9981,-58.33
363.0981,-56.83
363.1981,-56.54
363.2981,-58.14
363.3981,-59.74
363.4981,-58.52
363.5981,-58.24
363.6981,-58.24
363.7981,-57.86
363.8981,-57.77
363.9981,-58.24
364.0981,-57.96
364.1981,-57.58
364.2981,-57.39
364.3981,-57.11
364.4981,-56.26
364.5981,-57.86
364.6981,-58.14
364.7981,-58.62
364.8981,-58.24
364.9981,-57.58
365.0981,-58.62
365.1981,-57.77
365.2981,-58.33
365.3981,-59.65
365.4981,-59.27
365.5981,-58.05
365.6981,-56.17
365.7981,-56.07
365.8981,-57.49
365.9981,-58.24
366.0981,-59.56
366.1981,-58.43
366.2981,-57.67
366.3981,-58.62
366.4981,-59.18
366.5981,-59.09
366.6981,-59.09
366.7981,-59.84
366.8981,-59.18
366.9981,-59.46
367.0981,-59.74
367.1981,-59.93
367.2981,-59.37
367.3981,-57.77
367.4981,-58.24
367.5981,-59.74
367.6981,-60.59
367.7981,-57.86
367.8981,-56.83
367.9981,-57.39
368.0981,-56.64
368.1981,-55.7
368.2981,-56.83
368.3981,-59.27
368.4981,-59.46
368.5981,-58.99
368.6981,-57.86
368.7981,-57.39
368.8981,-58.24
368.9981,-58.43
369.0981,-58.99
369.1981,-58.9
369.2981,-59.56
369.3981,-60.78
369.4981,-58.24
369.5981,-56.73
369.6981,-57.58
369.7981,-57.49
369.8981,-57.49
369.9981,-58.14
370.0981,-58.33
370.1981,-58.14
370.2981,-57.49
370.3981,-57.02
370.4981,-56.54
370.5981,-57.58
370.6981,-59.37
370.7981,-58.33
370.8981,-58.43
370.9981,-58.71
371.0981,-58.9
371.1981,-58.62
371.2981,-59.27
371.3981,-58.9
371.4981,-59.37
371.5981,-59.65
371.6981,-58.14
371.7981,-57.49
371.8981,-58.14
371.9981,-58.52
372.0981,-58.62
372.1981,-58.05
372.2981,-58.62
372.3981,-57.86
372.4981,-57.86
372.5981,-57.67
372.6981,-58.71
372.7981,-58.8
372.8981,-59.27
372.9981,-59.37
373.0981,-59.09
373.1981,-59.09
373.2981,-58.14
373.3981,-56.73
373.4981,-56.54
373.5981,-57.77
373.6981,-56.83
373.7981,-57.11
373.8981,-58.14
373.9981,-58.14
374.0981,-58.71
374.1981,-58.8
374.2981,-58.8
374.3981,-58.99
374.4981,-58.24
374.5981,-58.24
374.6981,-58.52
374.7981,-59.37
374.8981,-58.99
374.9981,-57.96
375.0981,-57.77
375.1981,-57.39
375.2981,-57.96
375.3981,-58.24
375.4981,-59.27
375.5981,-58.43
375.6981,-59.84
375.7981,-59.09
375.8981,-57.39
375.9981,-57.2
376.0981,-56.92
376.1981,-57.39
376.2981,-58.43
376.3981,-58.14
376.4981,-57.77
376.5981,-57.39
376.6981,-58.43
376.7981,-58.71
376.8981,-57.96
376.9981,-58.62
377.0981,-58.14
377.1981,-57.3
377.2981,-59.09
377.3981,-57.77
377.4981,-58.05
377.5981,-59.74
377.6981,-58.33
377.7981,-57.2
377.8981,-57.3
377.9981,-57.49
378.0981,-58.43
378.1981,-58.99
378.2981,-59.09
378.3981,-58.71
378.4981,-57.2
378.5981,-57.39
378.6981,-58.43
378.7981,-57.3
378.8981,-59.56
378.9981,-58.62
379.0981,-57.58
379.1981,-58.05
379.2981,-58.14
379.3981,-57.67
379.4981,-57.77
379.5981,-57.2
379.6981,-58.14
379.7981,-57.67
379.8981,-57.11
379.9981,-57.96
380.0981,-59.56
380.1981,-59.56
380.2981,-58.8
380.3981,-58.24
380.4981,-57.86
380.5981,-58.05
380.6981,-59.09
380.7981,-59.09
380.8981,-58.05
380.9981,-60.5
381.0981,-59.84
381.1981,-59.09
381.2981,-59.27
381.3981,-59.27
381.4981,-59.65
381.5981,-58.9
381.6981,-58.43
381.7981,-58.52
381.8981,-58.24
381.9981,-58.14
382.0981,-57.3
382.1981,-57.3
382.2981,-58.99
382.3981,-59.18
382.4981,-58.62
382.5981,-58.14
382.6981,-57.3
382.7981,-57.3
382.8981,-58.14
382.9981,-56.83
383.0981,-57.11
383.1981,-57.49
383.2981,-56.64
383.3981,-57.2
383.4981,-58.05
383.5981,-58.24
383.6981,-58.43
383.7981,-59.46
383.8981,-57.86
383.9981,-57.96
384.0981,-58.14
384.1981,-58.24
384.2981,-59.56
384.3981,-59.18
384.4981,-58.52
384.5981,-58.05
384.6981,-59.09
384.7981,-59.37
384.8981,-58.24
384.9981,-58.24
385.0981,-57.67
385.1981,-56.54
385.2981,-58.05
385.3981,-58.43
385.4981,-58.71
385.5981,-58.14
385.6981,-58.33
385.7981,-57.77
385.8981,-56.07
385.9981,-55.32
386.0981,-58.62
386.1981,-59.09
386.2981,-60.78
386.3981,-59.84
386.4981,-59.37
386.5981,-59.09
386.6981,-58.71
386.7981,-58.52
386.8981,-58.05
386.9981,-57.02
387.0981,-58.33
387.1981,-58.24
387.2981,-58.05
387.3981,-58.14
387.4981,-58.71
387.5981,-58.71
387.6981,-58.33
387.7981,-58.05
387.8981,-58.9
387.9981,-58.05
388.0981,-58.43
388.1981,-58.8
388.2981,-57.3
388.3981,-57.2
388.4981,-57.02
388.5981,-57.49
388.6981,-57.86
388.7981,-59.27
388.8981,-59.27
388.9981,-58.24
389.0981,-58.24
389.1981,-58.05
389.2981,-57.86
389.3981,-58.05
389.4981,-56.36
389.5981,-57.67
389.6981,-58.24
389.7981,-58.14
389.8981,-58.8
389.9981,-57.77
390.0981,-58.14
390.1981,-60.03
390.2981,-59.56
390.3981,-58.71
390.4981,-60.03
390.5981,-60.69
390.6981,-59.93
390.7981,-59.27
390.8981,-59.65
390.9981,-58.99
391.0981,-57.96
391.1981,-57.02
391.2981,-57.11
391.3981,-57.2
391.4981,-56.73
391.5981,-57.86
391.6981,-58.24
391.7981,-59.84
391.8981,-57.49
391.9981,-57.96
392.0981,-58.05
392.1981,-57.96
392.2981,-57.49
392.3981,-59.18
392.4981,-58.8
392.5981,-58.33
392.6981,-59.09
392.7981,-57.58
392.8981,-56.64
392.9981,-57.11
393.0981,-56.54
393.1981,-55.98
393.2981,-57.02
393.3981,-58.62
393.4981,-58.33
393.5981,-58.8
393.6981,-58.43
393.7981,-58.05
393.8981,-60.03
393.9981,-58.43
394.0981,-58.14
394.1981,-58.52
394.2981,-58.33
394.3981,-57.96
394.4981,-58.43
394.5981,-57.96
394.6981,-58.52
394.7981,-58.62
394.8981,-59.46
394.9981,-59.74
395.0981,-58.05
395.1981,-58.62
395.2981,-58.62
395.3981,-59.65
395.4981,-60.97
395.5981,-59.65
395.6981,-58.43
395.7981,-58.71
395.8981,-58.52
395.9981,-57.67
396.0981,-58.33
396.1981,-58.8
396.2981,-59.37
396.3981,-59.93
396.4981,-57.96
396.5981,-58.52
396.6981,-59.27
396.7981,-58.62
396.8981,-56.92
396.9981,-56.92
397.0981,-57.49
397.1981,-58.14
397.2981,-58.99
397.3981,-57.86
397.4981,-58.43
397.5981,-57.86
397.6981,-58.62
397.7981,-58.71
397.8981,-58.24
397.9981,-59.18
398.0981,-57.96
398.1981,-57.49
398.2981,-58.05
398.3981,-57.39
398.4981,-58.8
398.5981,-59.18
398.6981,-58.62
398.7981,-58.24
398.8981,-58.14
398.9981,-59.27
399.0981,-57.58
399.1981,-58.62
399.2981,-58.33
399.3981,-57.86
399.4981,-57.96
399.5981,-58.9
399.6981,-57.96
399.7981,-57.96
399.8981,-58.52
399.9981,-57.96
400.0981,-58.52
400.1981,-58.8
400.2981,-58.9
400.3981,-58.9
400.4981,-58.8
400.5981,-59.09
400.6981,-57.49
400.7981,-57.77
400.8981,-58.33
400.9981,-58.05
401.0981,-58.33
401.1981,-58.14
401.2981,-57.39
401.3981,-56.07
401.4981,-57.3
401.5981,-57.96
401.6981,-57.67
401.7981,-57.2
401.8981,-57.39
401.9981,-58.99
402.0981,-58.62
402.1981,-59.37
402.2981,-57.96
402.3981,-57.86
402.4981,-58.33
402.5981,-58.52
402.6981,-59.18
402.7981,-59.27
402.8981,-58.52
402.9981,-57.49
403.0981,-56.83
403.1981,-57.2
403.2981,-58.71
403.3981,-59.65
403.4981,-59.84
403.5981,-58.52
403.6981,-58.62
403.7981,-58.8
403.8981,-58.43
403.9981,-58.52
404.0981,-57.86
404.1981,-58.71
404.2981,-58.9
404.3981,-58.05
404.4981,-58.71
404.5981,-59.74
404.6981,-58.99
404.7981,-57.2
404.8981,-58.05
404.9981,-59.18
405.0981,-58.71
405.1981,-57.3
405.2981,-58.14
405.3981,-58.05
405.4981,-57.11
405.5981,-58.05
405.6981,-58.14
405.7981,-58.43
405.8981,-59.65
405.9981,-59.37
406.0981,-59.65
406.1981,-60.4
406.2981,-57.86
406.3981,-58.14
406.4981,-57.77
406.5981,-58.8
406.6981,-57.39
406.7981,-57.58
406.8981,-57.77
406.9981,-57.67
407.0981,-57.77
407.1981,-58.99
407.2981,-58.99
407.3981,-58.71
407.4981,-59.37
407.5981,-59.56
407.6981,-58.52
407.7981,-58.33
407.8981,-58.62
407.9981,-59.74
408.0981,-59.56
408.1981,-59.65
408.2981,-59.18
408.3981,-58.8
408.4981,-58.43
408.5981,-58.71
408.6981,-58.24
408.7981,-58.9
408.8981,-58.14
408.9981,-58.33
409.0981,-57.58
409.1981,-56.83
409.2981,-57.96
409.3981,-58.05
409.4981,-59.46
409.5981,-60.12
409.6981,-58.9
409.7981,-58.9
409.8981,-59.09
409.9981,-58.33
410.0981,-58.43
410.1981,-59.37
410.2981,-59.18
410.3981,-58.14
410.4981,-58.8
410.5981,-58.9
410.6981,-58.8
410.7981,-58.99
410.8981,-58.33
410.9981,-58.33
411.0981,-58.71
411.1981,-58.43
411.2981,-58.52
411.3981,-58.8
411.4981,-59.65
411.5981,-59.18
411.6981,-58.43
411.7981,-59.46
411.8981,-57.3
411.9981,-57.11
412.0981,-57.77
412.1981,-57.58
412.2981,-59.09
412.3981,-58.33
412.4981,-58.14
412.5981,-58.33
412.6981,-58.33
412.7981,-57.96
412.8981,-57.58
412.9981,-58.62
413.0981,-57.77
413.1981,-57.77
413.2981,-57.58
413.3981,-58.14
413.4981,-57.86
413.5981,-57.02
413.6981,-57.3
413.7981,-58.71
413.8981,-59.27
413.9981,-59.18
414.0981,-58.52
414.1981,-58.05
414.2981,-59.18
414.3981,-57.86
414.4981,-56.73
414.5981,-57.11
414.6981,-56.73
414.7981,-57.39
414.8981,-58.8
414.9981,-58.9
415.0981,-58.33
415.1981,-58.8
415.2981,-59.09
415.3981,-58.43
415.4981,-58.24
415.5981,-60.12
415.6981,-58.52
415.7981,-59.37
415.8981,-60.59
415.9981,-59.27
416.0981,-58.71
416.1981,-59.18
416.2981,-58.9
416.3981,-59.18
416.4981,-58.24
416.5981,-57.67
416.6981,-56.83
416.7981,-58.05
416.8981,-59.46
416.9981,-58.99
417.0981,-58.9
417.1981,-59.27
417.2981,-58.05
417.3981,-57.39
417.4981,-58.71
417.5981,-59.27
417.6981,-59.18
417.7981,-58.52
417.8981,-57.77
417.9981,-58.62
418.0981,-59.09
418.1981,-59.46
418.2981,-60.03
418.3981,-58.52
418.4981,-57.49
418.5981,-58.71
418.6981,-59.56
418.7981,-60.21
418.8981,-60.78
418.9981,-58.99
419.0981,-58.43
419.1981,-59.65
419.2981,-58.62
419.3981,-58.43
419.4981,-58.71
419.5981,-59.18
419.6981,-59.37
419.7981,-57.77
419.8981,-58.05
419.9981,-58.05
420.0981,-58.52
420.1981,-58.05
420.2981,-57.86
420.3981,-56.64
420.4981,-58.52
420.5981,-59.27
420.6981,-58.52
420.7981,-58.99
420.8981,-58.52
420.9981,-58.8
421.0981,-59.74
421.1981,-58.8
421.2981,-57.96
421.3981,-57.49
421.4981,-58.33
421.5981,-58.52
421.6981,-58.99
421.7981,-57.11
421.8981,-58.43
421.9981,-58.33
422.0981,-57.86
422.1981,-58.8
422.2981,-58.71
422.3981,-59.37
422.4981,-57.96
422.5981,-57.3
422.6981,-57.77
422.7981,-58.43
422.8981,-59.56
422.9981,-58.43
423.0981,-58.33
423.1981,-58.9
423.2981,-58.8
423.3981,-58.33
423.4981,-57.86
423.5981,-58.8
423.6981,-57.77
423.7981,-58.24
423.8981,-59.18
423.9981,-58.8
424.0981,-58.43
424.1981,-57.77
424.2981,-57.3
424.3981,-58.05
424.4981,-58.24
424.5981,-56.83
424.6981,-58.24
424.7981,-57.86
424.8981,-58.05
424.9981,-57.77
425.0981,-59.18
425.1981,-58.62
425.2981,-57.67
425.3981,-58.14
425.4981,-60.03
425.5981,-59.84
425.6981,-59.37
425.7981,-58.43
425.8981,-58.43
425.9981,-59.46
426.0981,-59.37
426.1981,-60.31
426.2981,-60.21
426.3981,-59.27
426.4981,-58.43
426.5981,-60.03
426.6981,-59.46
426.7981,-58.33
426.8981,-58.05
426.9981,-57.86
427.0981,-58.9
427.1981,-59.27
427.2981,-58.52
427.3981,-58.52
427.4981,-60.12
427.5981,-59.09
427.6981,-58.71
427.7981,-58.24
427.8981,-57.77
427.9981,-58.33
428.0981,-57.49
428.1981,-57.77
428.2981,-57.77
428.3981,-57.02
428.4981,-57.67
428.5981,-58.9
428.6981,-58.43
428.7981,-59.56
428.8981,-58.52
428.9981,-58.33
429.0981,-59.46
429.1981,-59.74
429.2981,-58.71
429.3981,-57.86
429.4981,-58.14
429.5981,-58.33
429.6981,-59.46
429.7981,-58.71
429.8981,-58.05
429.9981,-57.39
430.0981,-57.96
430.1981,-57.67
430.2981,-56.64
430.3981,-58.71
430.4981,-60.69
430.5981,-59.46
430.6981,-58.9
430.7981,-58.43
430.8981,-58.52
430.9981,-57.77
431.0981,-57.77
431.1981,-58.9
431.2981,-59.65
431.3981,-58.52
431.4981,-58.14
431.5981,-58.14
431.6981,-57.77
431.7981,-59.09
431.8981,-60.03
431.9981,-59.65
432.0981,-58.8
432.1981,-58.24
432.2981,-58.33
432.3981,-58.14
432.4981,-57.58
432.5981,-57.86
432.6981,-56.45
432.7981,-56.64
432.8981,-56.83
432.9981,-57.58
433.0981,-57.86
433.1981,-57.58
433.2981,-57.58
433.3981,-58.8
433.4981,-58.14
433.5981,-59.37
433.6981,-59.37
433.7981,-59.18
433.8981,-59.74
433.9981,-59.74
434.0981,-59.27
434.1981,-59.46
434.2981,-58.43
434.3981,-57.96
434.4981,-58.62
434.5981,-59.27
434.6981,-57.86
434.7981,-58.52
434.8981,-59.56
434.9981,-59.18
435.0981,-58.71
435.1981,-59.37
435.2981,-57.3
435.3981,-57.02
435.4981,-57.39
435.5981,-57.67
435.6981,-57.39
435.7981,-58.14
435.8981,-58.24
435.9981,-58.99
436.0981,-59.09
436.1981,-58.71
436.2981,-57.86
436.3981,-58.05
436.4981,-57.3
436.5981,-57.2
436.6981,-58.71
436.7981,-58.99
436.8981,-59.74
436.9981,-60.12
437.0981,-60.12
437.1981,-58.33
437.2981,-58.62
437.3981,-59.27
437.4981,-59.56
437.5981,-61.06
437.6981,-59.84
437.7981,-59.27
437.8981,-58.14
437.9981,-57.49
438.0981,-57.67
438.1981,-57.58
438.2981,-58.24
438.3981,-58.9
438.4981,-59.09
438.5981,-58.71
438.6981,-58.24
438.7981,-58.8
438.8981,-58.99
438.9981,-57.96
439.0981,-58.8
439.1981,-59.46
439.2981,-57.96
439.3981,-57.67
439.4981,-58.33
439.5981,-57.49
439.6981,-58.33
439.7981,-58.43
439.8981,-58.33
439.9981,-59.27
440.0981,-59.46
440.1981,-59.93
440.2981,-59.74
440.3981,-59.37
440.4981,-58.71
440.5981,-56.73
440.6981,-55.7
440.7981,-57.67
440.8981,-57.39
440.9981,-56.73
441.0981,-57.3
441.1981,-57.96
441.2981,-59.84
441.3981,-59.65
441.4981,-57.2
441.5981,-56.73
441.6981,-58.62
441.7981,-59.46
441.8981,-58.05
441.9981,-57.67
442.0981,-58.62
442.1981,-58.62
442.2981,-59.09
442.3981,-58.8
442.4981,-60.03
442.5981,-59.09
442.6981,-58.33
442.7981,-57.86
442.8981,-58.05
442.9981,-59.37
443.0981,-59.37
443.1981,-57.67
443.2981,-58.71
443.3981,-56.83
443.4981,-57.02
443.5981,-57.77
443.6981,-57.58
443.7981,-57.96
443.8981,-57.96
443.9981,-57.39
444.0981,-57.67
444.1981,-57.67
444.2981,-57.02
444.3981,-57.49
444.4981,-59.18
444.5981,-59.27
444.6981,-58.52
444.7981,-57.86
444.8981,-57.3
444.9981,-57.49
445.0981,-58.62
445.1981,-58.62
445.2981,-58.14
445.3981,-57.2
445.4981,-58.52
445.5981,-59.09
445.6981,-58.9
445.7981,-58.43
445.8981,-56.54
445.9981,-57.77
446.0981,-58.14
446.1981,-58.33
446.2981,-58.9
446.3981,-57.58
446.4981,-56.45
446.5981,-57.77
446.6981,-58.14
446.7981,-58.33
446.8981,-58.33
446.9981,-57.58
447.0981,-58.52
447.1981,-57.67
447.2981,-58.71
447.3981,-59.65
447.4981,-59.09
447.5981,-58.62
447.6981,-59.09
447.7981,-58.14
447.8981,-58.14
447.9981,-58.62
448.0981,-59.18
448.1981,-59.18
448.2981,-59.27
448.3981,-57.86
448.4981,-58.9
448.5981,-57.77
448.6981,-58.05
448.7981,-58.9
448.8981,-59.46
448.9981,-59.65
449.0981,-57.96
449.1981,-58.43
449.2981,-60.97
449.3981,-58.71
449.4981,-58.71
449.5981,-58.9
449.6981,-58.99
449.7981,-58.9
449.8981,-58.62
449.9981,-57.77
450.0981,-59.09
450.1981,-59.84
450.2981,-59.46
450.3981,-58.99
450.4981,-58.05
450.5981,-58.05
450.6981,-59.46
450.7981,-59.65
450.8981,-59.18
450.9981,-57.77
451.0981,-58.8
451.1981,-58.71
451.2981,-58.33
451.3981,-58.71
451.4981,-59.37
451.5981,-58.99
451.6981,-59.46
451.7981,-59.09
451.8981,-58.52
451.9981,-59.18
452.0981,-59.93
452.1981,-58.05
452.2981,-58.43
452.3981,-59.27
452.4981,-58.62
452.5981,-58.8
452.6981,-58.52
452.7981,-58.05
452.8981,-58.71
452.9981,-57.77
453.0981,-57.96
453.1981,-58.43
453.2981,-59.18
453.3981,-59.18
453.4981,-57.77
453.5981,-58.8
453.6981,-59.56
453.7981,-58.14
453.8981,-57.3
453.9981,-57.02
454.0981,-57.67
454.1981,-56.92
454.2981,-57.3
454.3981,-57.86
454.4981,-57.86
454.5981,-57.11
454.6981,-58.14
454.7981,-56.83
454.8981,-58.8
454.9981,-59.18
455.0981,-58.05
455.1981,-57.67
455.2981,-58.33
455.3981,-57.67
455.4981,-58.71
455.5981,-58.43
455.6981,-57.2
455.7981,-57.86
455.8981,-58.05
455.9981,-58.05
456.0981,-58.71
456.1981,-57.96
456.2981,-57.67
456.3981,-57.96
456.4981,-59.18
456.5981,-60.97
456.6981,-58.9
456.7981,-57.67
456.8981,-58.05
456.9981,-59.27
457.0981,-58.71
457.1981,-57.96
457.2981,-57.39
457.3981,-57.77
457.4981,-58.24
457.5981,-59.56
457.6981,-60.5
457.7981,-58.71
457.8981,-57.58
457.9981,-58.99
458.0981,-57.96
458.1981,-57.39
458.2981,-58.14
458.3981,-58.71
458.4981,-58.99
458.5981,-58.43
458.6981,-58.52
458.7981,-58.8
458.8981,-58.9
458.9981,-59.37
459.0981,-59.65
459.1981,-59.84
459.2981,-59.46
459.3981,-58.14
459.4981,-57.39
459.5981,-58.05
459.6981,-57.86
459.7981,-57.77
459.8981,-58.33
459.9981,-57.3
460.0981,-57.58
460.1981,-58.52
460.2981,-57.86
460.3981,-57.96
460.4981,-58.05
460.5981,-57.86
460.6981,-58.9
460.7981,-60.87
460.8981,-59.74
460.9981,-59.09
461.0981,-58.52
461.1981,-58.71
461.2981,-57.96
461.3981,-58.71
461.4981,-58.62
461.5981,-58.52
461.6981,-58.33
461.7981,-57.58
461.8981,-57.67
461.9981,-57.77
462.0981,-58.33
462.1981,-58.8
462.2981,-58.9
462.3981,-58.9
462.4981,-57.02
462.5981,-55.32
462.6981,-56.54
462.7981,-57.96
462.8981,-59.46
462.9981,-59.27
463.0981,-58.33
463.1981,-60.12
463.2981,-58.8
463.3981,-58.14
463.4981,-59.18
463.5981,-59.27
463.6981,-58.14
463.7981,-58.14
463.8981,-58.05
463.9981,-57.67
464.0981,-58.43
464.1981,-58.71
464.2981,-57.96
464.3981,-57.58
464.4981,-59.56
464.5981,-59.27
464.6981,-58.24
464.7981,-57.3
464.8981,-58.14
464.9981,-57.96
465.0981,-58.52
465.1981,-58.33
465.2981,-58.05
465.3981,-57.49
465.4981,-56.26
465.5981,-57.67
465.6981,-58.43
465.7981,-59.18
465.8981,-59.27
465.9981,-59.18
466.0981,-58.43
466.1981,-58.52
466.2981,-57.77
466.3981,-58.52
466.4981,-59.74
466.5981,-60.31
466.6981,-59.46
466.7981,-58.33
466.8981,-58.43
466.9981,-58.24
467.0981,-58.24
467.1981,-58.99
467.2981,-59.09
467.3981,-58.71
467.4981,-59.27
467.5981,-59.74
467.6981,-58.52
467.7981,-57.11
467.8981,-55.7
467.9981,-56.07
468.0981,-56.83
468.1981,-58.33
468.2981,-58.9
468.3981,-58.9
468.4981,-58.33
468.5981,-58.99
468.6981,-59.18
468.7981,-58.99
468.8981,-57.67
468.9981,-58.71
469.0981,-58.99
469.1981,-57.96
469.2981,-57.3
469.3981,-57.58
469.4981,-57.58
469.5981,-57.39
469.6981,-57.96
469.7981,-58.52
469.8981,-57.77
469.9981,-57.96
470.0981,-58.52
470.1981,-58.24
470.2981,-58.71
470.3981,-58.99
470.4981,-59.27
470.5981,-58.71
470.6981,-58.62
470.7981,-58.9
470.8981,-58.99
470.9981,-59.65
471.0981,-58.9
471.1981,-58.14
471.2981,-58.43
471.3981,-59.93
471.4981,-57.96
471.5981,-57.3
471.6981,-57.67
471.7981,-58.9
471.8981,-60.12
471.9981,-58.14
472.0981,-58.71
472.1981,-58.62
472.2981,-59.27
472.3981,-57.86
472.4981,-58.05
472.5981,-58.05
472.6981,-58.24
472.7981,-58.62
472.8981,-58.43
472.9981,-59.09
473.0981,-57.67
473.1981,-58.14
473.2981,-56.92
473.3981,-56.17
473.4981,-56.64
473.5981,-57.11
473.6981,-56.64
473.7981,-57.49
473.8981,-58.33
473.9981,-57.49
474.0981,-57.3
474.1981,-58.24
474.2981,-59.46
474.3981,-58.71
474.4981,-57.77
474.5981,-58.52
474.6981,-58.43
474.7981,-57.96
474.8981,-58.62
474.9981,-59.37
475.0981,-56.92
475.1981,-57.58
475.2981,-59.56
475.3981,-58.9
475.4981,-57.96
475.5981,-58.52
475.6981,-59.09
475.7981,-58.71
475.8981,-58.05
475.9981,-57.86
476.0981,-58.14
476.1981,-58.33
476.2981,-58.52
476.3981,-58.52
476.4981,-58.8
476.5981,-59.09
476.6981,-58.52
476.7981,-58.71
476.8981,-58.33
476.9981,-58.9
477.0981,-60.12
477.1981,-59.84
477.2981,-60.4
477.3981,-59.46
477.4981,-58.33
477.5981,-57.49
477.6981,-57.39
477.7981,-57.96
477.8981,-56.54
477.9981,-56.17
478.0981,-57.58
478.1981,-58.8
478.2981,-58.43
478.3981,-58.05
478.4981,-58.52
478.5981,-58.43
478.6981,-57.96
478.7981,-58.05
478.8981,-58.05
478.9981,-57.39
479.0981,-58.9
479.1981,-58.43
479.2981,-57.77
479.3981,-57.86
479.4981,-58.9
479.5981,-58.52
479.6981,-58.9
479.7981,-58.99
479.8981,-59.09
479.9981,-58.8
480.0981,-58.33
480.1981,-58.52
480.2981,-57.39
480.3981,-57.58
480.4981,-59.37
480.5981,-59.18
480.6981,-58.05
480.7981,-57.96
480.8981,-58.8
480.9981,-58.9
481.0981,-59.18
481.1981,-59.09
481.2981,-57.96
481.3981,-57.02
481.4981,-57.49
481.5981,-57.67
481.6981,-57.58
481.7981,-58.33
481.8981,-58.71
481.9981,-57.86
482.0981,-58.71
482.1981,-58.33
482.2981,-57.11
482.3981,-56.73
482.4981,-58.05
482.5981,-58.8
482.6981,-58.9
482.7981,-59.46
482.8981,-57.86
482.9981,-56.54
483.0981,-57.02
483.1981,-58.52
483.2981,-58.62
483.3981,-58.99
483.4981,-58.52
483.5981,-58.71
483.6981,-59.46
483.7981,-59.09
483.8981,-57.2
483.9981,-58.05
484.0981,-59.37
484.1981,-57.96
484.2981,-58.43
484.3981,-59.56
484.4981,-58.9
484.5981,-57.49
484.6981,-57.2
484.7981,-57.58
484.8981,-60.03
484.9981,-58.52
485.0981,-57.58
485.1981,-58.14
485.2981,-58.71
485.3981,-58.52
485.4981,-57.3
485.5981,-57.49
485.6981,-57.96
485.7981,-58.24
485.8981,-57.3
485.9981,-56.83
486.0981,-58.05
486.1981,-58.43
486.2981,-59.18
486.3981,-59.37
486.4981,-58.24
486.5981,-59.09
486.6981,-59.37
486.7981,-57.2
486.8981,-58.05
486.9981,-57.96
487.0981,-56.36
487.1981,-57.39
487.2981,-57.67
487.3981,-57.77
487.4981,-58.14
487.5981,-59.18
487.6981,-58.43
487.7981,-58.24
487.8981,-59.27
487.9981,-58.52
488.0981,-59.37
488.1981,-59.09
488.2981,-58.43
488.3981,-57.49
488.4981,-57.77
488.5981,-58.14
488.6981,-58.71
488.7981,-58.8
488.8981,-58.71
488.9981,-59.65
489.0981,-59.37
489.1981,-60.87
489.2981,-59.18
489.3981,-59.27
489.4981,-57.39
489.5981,-57.67
489.6981,-57.67
489.7981,-57.67
489.8981,-57.49
489.9981,-58.24
490.0981,-58.52
490.1981,-58.52
490.2981,-57.39
490.3981,-57.49
490.4981,-58.14
490.5981,-58.71
490.6981,-58.14
490.7981,-56.73
490.8981,-58.05
490.9981,-58.24
491.8981,-82.52
491.9981,-57.2
492.0981,-57.11
492.1981,-56.17
492.2981,-57.11
492.3981,-58.33
492.4981,-58.24
492.5981,-58.62
492.6981,-58.05
492.7981,-57.2
492.8981,-58.24
492.9981,-59.37
493.0981,-58.33
493.1981,-57.86
493.2981,-58.43
493.3981,-58.24
493.4981,-57.02
493.5981,-57.49
493.6981,-58.24
493.7981,-57.67
493.8981,-56.26
493.9981,-57.86
494.0981,-58.14
494.1981,-57.02
494.2981,-56.83
494.3981,-58.52
494.4981,-59.65
494.5981,-57.49
494.6981,-57.2
494.7981,-57.3
494.8981,-57.67
494.9981,-57.11
495.0981,-58.05
495.1981,-58.05
495.2981,-57.11
495.3981,-57.49
495.4981,-58.9
495.5981,-57.67
495.6981,-57.11
495.7981,-57.49
495.8981,-57.86
495.9981,-58.33
496.0981,-58.71
496.1981,-57.77
496.2981,-58.71
496.3981,-58.33
496.4981,-58.05
496.5981,-58.24
496.6981,-59.18
496.7981,-58.33
496.8981,-58.52
496.9981,-58.9
497.0981,-59.56
497.1981,-58.52
497.2981,-57.2
497.3981,-56.45
497.4981,-56.54
497.5981,-56.45
497.6981,-56.07
497.7981,-55.89
497.8981,-56.45
497.9981,-57.3
498.0981,-57.3
498.1981,-58.05
498.2981,-59.27
498.3981,-58.24
498.4981,-59.09
498.5981,-58.24
498.6981,-58.8
498.7981,-58.8
498.8981,-59.18
498.9981,-59.93
499.0981,-59.18
499.1981,-58.24
499.2981,-58.62
499.3981,-59.37
499.4981,-58.99
499.5981,-57.39
499.6981,-56.73
499.7981,-56.83
499.8981,-57.02
499.9981,-58.14
500.0981,-58.24
500.1981,-57.58
500.2981,-56.92
500.3981,-56.54
500.4981,-55.89
500.5981,-57.3
500.6981,-58.9
500.7981,-59.65
500.8981,-59.65
500.9981,-59.09
501.0981,-58.62
501.1981,-56.26
501.2981,-56.36
501.3981,-57.58
501.4981,-57.67
501.5981,-58.24
501.6981,-57.49
501.7981,-57.58
501.8981,-58.24
501.9981,-58.24
502.0981,-57.77
502.1981,-57.67
502.2981,-57.86
502.3981,-58.33
502.4981,-58.14
502.5981,-58.43
502.6981,-57.96
502.7981,-56.45
502.8981,-57.02
502.9981,-57.49
503.0981,-58.62
503.1981,-57.58
503.2981,-58.14
503.3981,-58.52
503.4981,-58.14
503.5981,-58.71
503.6981,-59.46
503.7981,-59.46
503.8981,-58.05
503.9981,-57.11
504.0981,-57.67
504.1981,-58.05
504.2981,-56.73
504.3981,-57.67
504.4981,-58.9
504.5981,-58.43
504.6981,-58.05
504.7981,-57.2
504.8981,-57.49
504.9981,-58.05
505.0981,-57.96
505.1981,-59.18
505.2981,-59.56
505.3981,-59.09
505.4981,-57.3
505.5981,-58.05
505.6981,-57.96
505.7981,-57.67
505.8981,-57.49
505.9981,-57.02
506.0981,-57.39
506.1981,-57.39
506.2981,-57.86
506.3981,-59.37
506.4981,-58.14
506.5981,-57.77
506.6981,-56.92
506.7981,-56.92
506.8981,-58.43
506.9981,-58.43
507.0981,-58.05
507.1981,-56.54
507.2981,-58.14
507.3981,-58.99
507.4981,-57.49
507.5981,-57.67
507.6981,-58.8
507.7981,-58.43
507.8981,-58.24
507.9981,-58.43
508.0981,-58.8
508.1981,-59.09
508.2981,-57.58
508.3981,-56.83
508.4981,-56.26
508.5981,-56.17
508.6981,-57.39
508.7981,-58.05
508.8981,-58.9
508.9981,-58.71
509.0981,-58.43
509.1981,-59.27
509.2981,-59.56
509.3981,-59.74
509.4981,-57.96
509.5981,-57.67
509.6981,-57.49
509.7981,-57.77
509.8981,-57.39
509.9981,-56.64
510.0981,-58.24
510.1981,-57.67
510.2981,-58.8
510.3981,-57.11
510.4981,-57.49
510.5981,-57.39
510.6981,-56.64
510.7981,-57.49
510.8981,-58.05
510.9981,-58.05
511.0981,-58.14
511.1981,-57.3
511.2981,-58.52
511.3981,-58.05
511.4981,-58.14
511.5981,-59.93
511.6981,-57.3
511.7981,-58.24
511.8981,-58.99
511.9981,-58.52
512.0981,-59.37
512.1981,-58.24
512.2981,-58.71
512.3981,-58.43
512.4981,-58.33
512.5981,-58.99
512.6981,-57.39
512.7981,-57.67
512.8981,-58.14
512.9981,-57.39
513.0981,-58.71
513.1981,-58.24
513.2981,-57.2
513.3981,-58.14
513.4981,-57.58
513.5981,-55.6
513.6981,-55.7
513.7981,-57.02
513.8981,-57.49
513.9981,-57.2
514.0981,-57.39
514.1981,-58.33
514.2981,-57.77
514.3981,-58.43
514.4981,-58.62
514.5981,-59.37
514.6981,-58.52
514.7981,-57.2
514.8981,-57.67
514.9981,-57.11
515.0981,-56.45
515.1981,-55.7
515.2981,-56.45
515.3981,-57.3
515.4981,-56.07
515.5981,-55.32
515.6981,-56.83
515.7981,-59.37
515.8981,-59.09
515.9981,-58.99
516.0981,-58.14
516.1981,-57.96
516.2981,-58.24
516.3981,-56.83
516.4981,-57.3
516.5981,-59.74
516.6981,-58.71
516.7981,-58.05
516.8981,-57.77
516.9981,-58.71
517.0981,-58.05
517.1981,-58.62
517.2981,-60.12
517.3981,-59.74
517.4981,-58.43
517.5981,-57.77
517.6981,-57.2
517.7981,-56.45
517.8981,-57.02
517.9981,-58.14
518.0981,-57.02
518.1981,-57.2
518.2981,-58.05
518.3981,-56.92
518.4981,-57.49
518.5981,-59.18
518.6981,-58.24
518.7981,-57.11
518.8981,-56.92
518.9981,-57.77
519.0981,-57.58
519.1981,-56.83
519.2981,-57.49
519.3981,-57.2
519.4981,-57.77
519.5981,-58.62
519.6981,-58.9
519.7981,-58.24
519.8981,-58.9
519.9981,-59.84
520.0981,-59.65
520.1981,-59.74
520.2981,-57.86
520.3981,-57.11
520.4981,-57.02
520.5981,-59.09
520.6981,-57.86
520.7981,-57.58
520.8981,-57.77
520.9981,-56.83
521.0981,-58.43
521.1981,-60.78
521.2981,-58.33
521.3981,-56.73
521.4981,-57.77
521.5981,-57.49
521.6981,-58.43
521.7981,-57.58
521.8981,-58.14
521.9981,-58.14
522.0981,-58.05
522.1981,-57.77
522.2981,-58.52
522.3981,-59.09
522.4981,-57.67
522.5981,-57.77
522.6981,-57.39
522.7981,-57.67
522.8981,-57.58
522.9981,-57.77
523.0981,-57.2
523.1981,-57.96
523.2981,-57.86
523.3981,-57.67
523.4981,-57.39
523.5981,-57.39
523.6981,-57.39
523.7981,-58.43
523.8981,-58.99
523.9981,-59.27
524.0981,-58.05
524.1981,-58.05
524.2981,-57.49
524.3981,-57.11
524.4981,-57.02
524.5981,-57.02
524.6981,-57.02
524.7981,-56.73
524.8981,-56.83
524.9981,-57.02
525.0981,-56.07
525.1981,-58.24
525.2981,-59.46
525.3981,-59.74
525.4981,-59.65
525.5981,-58.99
525.6981,-57.96
525.7981,-57.86
525.8981,-57.58
525.9981,-58.62
526.0981,-57.49
526.1981,-57.77
526.2981,-56.83
526.3981,-56.07
526.4981,-57.49
526.5981,-58.33
526.6981,-57.58
526.7981,-58.62
526.8981,-58.71
526.9981,-57.11
527.0981,-56.45
527.1981,-57.39
527.2981,-57.49
527.3981,-56.17
527.4981,-57.02
527.5981,-58.8
527.6981,-58.62
527.7981,-58.43
527.8981,-57.96
527.9981,-57.96
528.0981,-59.37
528.1981,-58.52
528.2981,-58.9
528.3981,-57.77
528.4981,-56.36
528.5981,-56.54
528.6981,-56.36
528.7981,-56.45
528.8981,-55.89
528.9981,-55.7
529.0981,-55.23
529.1981,-56.36
529.2981,-57.49
529.3981,-58.8
529.4981,-57.96
529.5981,-57.49
529.6981,-58.05
529.7981,-58.52
529.8981,-57.96
529.9981,-57.86
530.0981,-58.71
530.1981,-57.86
530.2981,-56.45
530.3981,-57.11
530.4981,-58.52
530.5981,-58.33
530.6981,-58.24
530.7981,-57.02
530.8981,-58.05
530.9981,-58.99
531.0981,-58.24
531.1981,-57.39
531.2981,-57.39
531.3981,-57.3
531.4981,-56.64
531.5981,-55.7
531.6981,-56.26
531.7981,-57.3
531.8981,-57.3
531.9981,-57.11
532.0981,-58.33
532.1981,-58.24
532.2981,-58.24
532.3981,-57.49
532.4981,-55.32
532.5981,-55.51
532.6981,-56.17
532.7981,-57.67
532.8981,-58.62
532.9981,-58.43
533.0981,-57.58
533.1981,-56.73
533.2981,-57.67
533.3981,-57.49
533.4981,-58.24
533.5981,-58.33
533.6981,-57.86
533.7981,-58.43
533.8981,-58.52
533.9981,-58.14
534.0981,-56.92
534.1981,-57.3
534.2981,-57.3
534.3981,-56.92
534.4981,-56.83
534.5981,-57.2
534.6981,-56.83
534.7981,-57.58
534.8981,-57.77
534.9981,-57.86
535.0981,-56.92
535.1981,-57.2
535.2981,-56.17
535.3981,-56.26
535.4981,-57.11
535.5981,-56.73
535.6981,-57.96
535.7981,-58.99
535.8981,-60.03
535.9981,-58.05
536.0981,-57.96
536.1981,-58.33
536.2981,-58.99
536.3981,-58.71
536.4981,-58.62
536.5981,-58.43
536.6981,-56.92
536.7981,-58.33
536.8981,-57.2
536.9981,-56.17
537.0981,-56.26
537.1981,-56.26
537.2981,-56.92
537.3981,-57.2
537.4981,-57.67
537.5981,-59.18
537.6981,-58.05
537.7981,-57.67
537.8981,-56.54
537.9981,-56.45
538.0981,-57.11
538.1981,-56.64
538.2981,-55.04
538.3981,-56.36
538.4981,-57.39
538.5981,-59.09
538.6981,-58.8
538.7981,-57.86
538.8981,-57.67
538.9981,-58.43
539.0981,-58.71
539.1981,-58.05
539.2981,-58.71
539.3981,-58.33
539.4981,-58.62
539.5981,-57.77
539.6981,-57.39
539.7981,-56.45
539.8981,-57.77
539.9981,-58.05
540.0981,-58.8
540.1981,-58.99
540.2981,-58.05
540.3981,-57.58
540.4981,-57.2
540.5981,-55.7
540.6981,-56.17
540.7981,-56.07
540.8981,-55.6
540.9981,-57.02
541.0981,-55.89
541.1981,-56.17
541.2981,-55.98
541.3981,-56.92
541.4981,-59.37
541.5981,-59.37
541.6981,-59.09
541.7981,-58.05
541.8981,-57.86
541.9981,-57.67
542.0981,-58.05
542.1981,-57.02
542.2981,-57.3
542.3981,-57.67
542.4981,-58.05
542.5981,-58.8
542.6981,-58.99
542.7981,-57.77
542.8981,-59.09
542.9981,-57.49
543.0981,-57.77
543.1981,-58.43
543.2981,-57.96
543.3981,-57.58
543.4981,-57.77
543.5981,-57.39
543.6981,-57.2
543.7981,-58.05
543.8981,-56.83
543.9981,-56.26
544.0981,-56.45
544.1981,-57.3
544.2981,-58.9
544.3981,-58.33
544.4981,-57.77
544.5981,-58.05
544.6981,-58.24
544.7981,-57.39
544.8981,-57.67
544.9981,-58.8
545.0981,-57.39
545.1981,-57.96
545.2981,-57.67
545.3981,-59.09
545.4981,-57.96
545.5981,-57.02
545.6981,-58.9
545.7981,-57.96
545.8981,-58.05
545.9981,-57.49
546.0981,-57.2
546.1981,-56.07
546.2981,-56.45
546.3981,-56.64
546.4981,-56.92
546.5981,-57.77
546.6981,-57.58
546.7981,-56.17
546.8981,-57.2
546.9981,-58.8
547.0981,-61.16
547.1981,-59.56
547.2981,-58.9
547.3981,-57.58
547.4981,-57.3
547.5981,-56.64
547.6981,-55.7
547.7981,-55.98
547.8981,-56.83
547.9981,-57.02
548.0981,-57.2
548.1981,-58.52
548.2981,-58.14
548.3981,-57.49
548.4981,-58.14
548.5981,-57.67
548.6981,-57.67
548.7981,-57.67
548.8981,-56.92
548.9981,-57.3
549.0981,-58.14
549.1981,-58.14
549.2981,-57.96
549.3981,-59.37
549.4981,-59.09
549.5981,-59.18
549.6981,-58.33
549.7981,-57.86
549.8981,-58.24
549.9981,-60.4
550.0981,-58.52
550.1981,-57.58
550.2981,-57.39
550.3981,-57.3
550.4981,-57.96
550.5981,-57.2
550.6981,-56.64
550.7981,-56.26
550.8981,-56.92
550.9981,-57.67
551.0981,-58.05
551.1981,-58.05
551.2981,-57.58
551.3981,-57.11
551.4981,-57.77
551.5981,-56.07
551.6981,-54.47
551.7981,-56.54
551.8981,-56.45
551.9981,-57.2
552.0981,-56.73
552.1981,-57.02
552.2981,-56.36
552.3981,-56.45
552.4981,-58.43
552.5981,-58.33
552.6981,-57.67
552.7981,-57.11
552.8981,-57.49
552.9981,-56.45
553.0981,-56.07
553.1981,-55.98
553.2981,-56.64
553.3981,-57.58
553.4981,-57.67
553.5981,-57.58
553.6981,-57.67
553.7981,-57.77
553.8981,-59.18
553.9981,-58.33
554.0981,-57.58
554.1981,-56.54
554.2981,-56.36
554.3981,-56.64
554.4981,-56.64
554.5981,-56.07
554.6981,-58.05
554.7981,-58.24
554.8981,-58.24
554.9981,-57.96
555.0981,-57.86
555.1981,-59.84
555.2981,-59.18
555.3981,-59.09
555.4981,-58.62
555.5981,-57.2
555.6981,-56.64
555.7981,-56.26
555.8981,-56.17
555.9981,-56.64
556.0981,-56.26
556.1981,-56.26
556.2981,-57.11
556.3981,-57.96
556.4981,-57.67
556.5981,-58.33
556.6981,-59.09
556.7981,-58.33
556.8981,-58.24
556.9981,-58.71
557.0981,-57.2
557.1981,-56.73
557.2981,-56.92
557.3981,-57.39
557.4981,-57.77
557.5981,-57.77
557.6981,-56.73
557.7981,-57.96
557.8981,-57.49
557.9981,-57.86
558.0981,-57.11
558.1981,-56.64
558.2981,-56.73
558.3981,-56.83
558.4981,-59.09
558.5981,-59.27
558.6981,-57.2
558.7981,-57.49
558.8981,-57.96
558.9981,-58.71
559.0981,-58.99
559.1981,-57.86
559.2981,-58.52
559.3981,-57.77
559.4981,-58.33
559.5981,-56.07
559.6981,-55.89
559.7981,-56.07
559.8981,-57.3
559.9981,-57.11
560.0981,-57.58
560.1981,-57.02
560.2981,-57.86
560.3981,-56.92
560.4981,-56.92
560.5981,-57.86
560.6981,-58.52
560.7981,-58.14
560.8981,-57.39
560.9981,-56.73
561.0981,-58.8
561.1981,-58.05
561.2981,-58.14
561.3981,-57.2
561.4981,-57.39
561.5981,-57.3
561.6981,-57.58
561.7981,-58.05
561.8981,-58.62
561.9981,-59.74
562.0981,-58.9
562.1981,-57.77
562.2981,-57.2
562.3981,-57.3
562.4981,-58.05
562.5981,-57.3
562.6981,-56.07
562.7981,-56.83
562.8981,-58.52
562.9981,-58.9
563.0981,-58.43
563.1981,-57.96
563.2981,-58.05
563.3981,-59.09
563.4981,-57.39
563.5981,-57.02
563.6981,-56.83
563.7981,-56.64
563.8981,-57.11
563.9981,-56.17
564.0981,-55.6
564.1981,-55.7
564.2981,-56.54
564.3981,-57.77
564.4981,-56.73
564.5981,-57.02
564.6981,-57.58
564.7981,-58.05
564.8981,-57.67
564.9981,-57.49
565.0981,-57.67
565.1981,-58.43
565.2981,-56.83
565.3981,-56.83
565.4981,-56.17
565.5981,-56.26
565.6981,-56.92
565.7981,-57.86
565.8981,-57.2
565.9981,-57.49
566.0981,-59.56
566.1981,-59.18
566.2981,-58.24
566.3981,-58.43
566.4981,-57.3
566.5981,-56.83
566.6981,-57.2
566.7981,-56.92
566.8981,-57.96
566.9981,-57.11
567.0981,-59.27
567.1981,-58.05
567.2981,-56.64
567.3981,-56.92
567.4981,-57.49
567.5981,-57.3
567.6981,-57.96
567.7981,-57.3
567.8981,-56.83
567.9981,-56.64
568.0981,-56.54
568.1981,-57.39
568.2981,-58.71
568.3981,-56.45
568.4981,-56.26
568.5981,-56.26
568.6981,-56.73
568.7981,-57.49
568.8981,-57.2
568.9981,-56.73
569.0981,-56.36
569.1981,-57.11
569.2981,-58.24
569.3981,-56.64
569.4981,-55.79
569.5981,-56.07
569.6981,-56.64
569.7981,-57.58
569.8981,-58.24
569.9981,-57.86
570.0981,-57.86
570.1981,-57.67
570.2981,-57.39
570.3981,-57.67
570.4981,-57.77
570.5981,-57.58
570.6981,-59.09
570.7981,-57.58
570.8981,-57.2
570.9981,-57.39
571.0981,-56.54
571.1981,-57.02
571.2981,-57.67
571.3981,-57.67
571.4981,-58.24
571.5981,-57.49
571.6981,-57.49
571.7981,-56.45
571.8981,-57.67
571.9981,-56.83
572.0981,-56.36
572.1981,-57.77
572.2981,-57.2
572.3981,-57.02
572.4981,-57.49
572.5981,-56.92
572.6981,-57.58
572.7981,-57.67
572.8981,-56.73
572.9981,-57.67
573.0981,-57.39
573.1981,-57.39
573.2981,-57.02
573.3981,-57.39
573.4981,-56.07
573.5981,-55.98
573.6981,-56.07
573.7981,-57.58
573.8981,-57.11
573.9981,-57.11
574.0981,-58.71
574.1981,-57.39
574.2981,-57.77
574.3981,-58.24
574.4981,-58.33
574.5981,-57.77
574.6981,-57.96
574.7981,-58.14
574.8981,-56.64
574.9981,-56.45
575.0981,-56.73
575.1981,-55.7
575.2981,-57.11
575.3981,-58.71
575.4981,-58.24
575.5981,-57.67
575.6981,-56.26
575.7981,-58.05
575.8981,-57.77
575.9981,-56.73
576.0981,-57.3
576.1981,-56.45
576.2981,-57.11
576.3981,-58.14
576.4981,-58.05
576.5981,-57.3
576.6981,-57.96
576.7981,-57.96
576.8981,-58.14
576.9981,-59.09
577.0981,-58.52
577.1981,-57.96
577.2981,-57.49
577.3981,-56.54
577.4981,-55.7
577.5981,-56.83
577.6981,-56.17
577.7981,-55.42
577.8981,-56.45
577.9981,-58.05
578.0981,-59.09
578.1981,-59.65
578.2981,-61.06
578.3981,-58.43
578.4981,-58.43
578.5981,-58.62
578.6981,-58.14
578.7981,-57.49
578.8981,-57.58
578.9981,-56.83
579.0981,-56.64
579.1981,-57.3
579.2981,-57.58
579.3981,-57.96
579.4981,-56.92
579.5981,-58.14
579.6981,-57.86
579.7981,-56.07
579.8981,-57.3
579.9981,-57.96
580.0981,-57.39
580.1981,-57.77
580.2981,-56.92
580.3981,-57.77
580.4981,-57.39
580.5981,-57.49
580.6981,-57.11
580.7981,-57.3
580.8981,-56.17
580.9981,-56.07
581.0981,-57.67
581.1981,-56.83
581.2981,-57.58
581.3981,-58.8
581.4981,-57.11
581.5981,-55.89
581.6981,-56.92
581.7981,-58.33
581.8981,-57.3
581.9981,-56.64
582.0981,-57.11
582.1981,-58.14
582.2981,-57.96
582.3981,-59.09
582.4981,-57.49
582.5981,-56.45
582.6981,-56.64
582.7981,-56.73
582.8981,-57.2
582.9981,-55.89
583.0981,-54.94
583.1981,-55.98
583.2981,-56.64
583.3981,-57.67
583.4981,-57.11
583.5981,-57.11
583.6981,-57.3
583.7981,-58.14
583.8981,-58.05
583.9981,-56.54
584.0981,-57.02
584.1981,-59.37
584.2981,-57.2
584.3981,-56.83
584.4981,-56.64
584.5981,-56.07
584.6981,-56.73
584.7981,-57.58
584.8981,-57.86
584.9981,-57.3
585.0981,-56.64
585.1981,-57.58
585.2981,-57.39
585.3981,-56.07
585.4981,-55.7
585.5981,-55.13
585.6981,-57.49
585.7981,-57.86
585.8981,-57.02
585.9981,-57.58
586.0981,-57.2
586.1981,-57.3
586.2981,-57.39
586.3981,-58.14
586.4981,-57.3
586.5981,-57.3
586.6981,-56.45
586.7981,-56.54
586.8981,-57.49
586.9981,-57.96
587.0981,-56.07
587.1981,-55.32
587.2981,-56.92
587.3981,-57.49
587.4981,-57.49
587.5981,-58.05
587.6981,-57.86
587.7981,-59.93
587.8981,-59.37
587.9981,-58.14
588.0981,-57.67
588.1981,-57.77
588.2981,-57.86
588.3981,-57.2
588.4981,-57.67
588.5981,-57.3
588.6981,-56.36
588.7981,-56.73
588.8981,-57.02
588.9981,-58.43
589.0981,-57.49
589.1981,-57.96
589.2981,-57.49
589.3981,-57.11
589.4981,-57.86
589.5981,-58.33
589.6981,-58.71
589.7981,-57.86
589.8981,-56.92
589.9981,-56.54
590.0981,-57.2
590.1981,-58.43
590.2981,-59.09
590.3981,-59.27
590.4981,-58.62
590.5981,-58.05
590.6981,-58.43
590.7981,-56.54
590.8981,-55.98
590.9981,-56.26
591.0981,-56.26
591.1981,-57.96
591.2981,-58.05
591.3981,-58.43
591.4981,-58.99
591.5981,-58.14
591.6981,-58.43
591.7981,-58.05
591.8981,-59.46
591.9981,-59.65
592.0981,-57.96
592.1981,-57.58
592.2981,-56.36
592.3981,-56.73
592.4981,-56.36
592.5981,-56.26
592.6981,-56.36
592.7981,-56.83
592.8981,-56.73
592.9981,-56.73
593.0981,-57.67
593.1981,-58.14
593.2981,-59.09
593.3981,-58.8
593.4981,-56.17
593.5981,-56.54
593.6981,-58.05
593.7981,-58.71
593.8981,-58.05
593.9981,-57.3
594.0981,-57.96
594.1981,-57.49
594.2981,-58.14
594.3981,-59.46
594.4981,-58.24
594.5981,-57.86
594.6981,-56.45
594.7981,-57.67
594.8981,-57.49
594.9981,-55.7
595.0981,-56.17
595.1981,-56.36
595.2981,-55.98
595.3981,-55.89
595.4981,-56.36
595.5981,-56.92
595.6981,-57.96
595.7981,-58.52
595.8981,-58.8
595.9981,-56.45
596.0981,-56.83
596.1981,-57.58
596.2981,-57.11
596.3981,-57.02
596.4981,-57.11
596.5981,-57.49
596.6981,-58.43
596.7981,-57.02
596.8981,-57.49
596.9981,-58.71
597.0981,-57.39
597.1981,-56.73
597.2981,-57.3
597.3981,-59.27
597.4981,-58.14
597.5981,-57.86
597.6981,-56.92
597.7981,-57.49
597.8981,-58.52
597.9981,-58.14
598.0981,-57.49
598.1981,-57.2
598.2981,-57.39
598.3981,-57.49
598.4981,-57.58
598.5981,-57.86
598.6981,-58.9
598.7981,-57.39
598.8981,-55.7
598.9981,-55.89
599.0981,-56.54
599.1981,-56.73
599.2981,-57.02
599.3981,-57.49
599.4981,-57.86
599.5981,-57.67
599.6981,-57.2
599.7981,-57.86
599.8981,-58.05
599.9981,-56.17
600.0981,-55.79
600.1981,-57.02
600.2981,-56.92
600.3981,-57.58
600.4981,-57.67
600.5981,-57.3
600.6981,-57.39
600.7981,-57.77
600.8981,-56.83
600.9981,-58.14
601.0981,-56.36
601.1981,-57.96
601.2981,-58.14
601.3981,-58.24
601.4981,-57.86
601.5981,-57.11
601.6981,-57.77
601.7981,-57.2
601.8981,-57.11
601.9981,-56.64
602.0981,-56.36
602.1981,-56.54
602.2981,-57.2
602.3981,-57.86
602.4981,-57.11
602.5981,-57.2
602.6981,-56.92
602.7981,-56.36
602.8981,-57.02
602.9981,-57.67
603.0981,-56.92
603.1981,-56.45
603.2981,-56.07
603.3981,-57.39
603.4981,-58.43
603.5981,-57.2
603.6981,-58.9
603.7981,-60.12
603.8981,-59.84
603.9981,-58.14
604.0981,-56.92
604.1981,-57.02
604.2981,-57.2
604.3981,-57.67
604.4981,-57.49
604.5981,-56.17
604.6981,-56.73
604.7981,-57.11
604.8981,-57.39
604.9981,-57.67
605.0981,-58.24
605.1981,-56.83
605.2981,-57.3
605.3981,-58.24
605.4981,-58.62
605.5981,-58.43
605.6981,-57.77
605.7981,-56.73
605.8981,-57.11
605.9981,-57.49
606.0981,-57.2
606.1981,-57.49
606.2981,-58.24
606.3981,-58.33
606.4981,-56.54
606.5981,-57.77
606.6981,-58.05
606.7981,-57.67
606.8981,-56.92
606.9981,-57.96
607.0981,-57.77
607.1981,-56.45
607.2981,-56.45
607.3981,-58.14
607.4981,-58.05
607.5981,-58.24
607.6981,-58.14
607.7981,-56.83
607.8981,-56.73
607.9981,-58.9
608.0981,-58.99
608.1981,-58.24
608.2981,-57.11
608.3981,-56.83
608.4981,-57.3
608.5981,-55.98
608.6981,-56.36
608.7981,-56.07
608.8981,-55.7
608.9981,-55.6
609.0981,-55.79
609.1981,-57.11
609.2981,-57.77
609.3981,-58.8
609.4981,-57.67
609.5981,-57.02
609.6981,-55.51
609.7981,-55.98
609.8981,-57.58
609.9981,-57.67
610.0981,-58.05
610.1981,-56.92
610.2981,-56.54
610.3981,-56.45
610.4981,-59.27
610.5981,-59.09
610.6981,-57.02
610.7981,-57.3
610.8981,-58.52
610.9981,-59.09
611.0981,-57.39
611.1981,-57.49
611.2981,-57.67
611.3981,-57.39
611.4981,-56.73
611.5981,-55.42
611.6981,-57.49
611.7981,-60.12
611.8981,-59.09
611.9981,-57.49
612.0981,-56.45
612.1981,-57.58
612.2981,-58.33
612.3981,-57.96
612.4981,-57.11
612.5981,-56.26
612.6981,-56.26
612.7981,-56.54
612.8981,-57.11
612.9981,-56.92
613.0981,-56.73
613.1981,-57.2
613.2981,-58.43
613.3981,-58.24
613.4981,-57.96
613.5981,-58.71
613.6981,-59.84
613.7981,-60.31
613.8981,-58.9
613.9981,-56.83
614.0981,-57.39
614.1981,-58.05
614.2981,-55.98
614.3981,-56.45
614.4981,-57.58
614.5981,-57.96
614.6981,-59.09
614.7981,-60.12
614.8981,-58.24
614.9981,-57.49
615.0981,-57.3
615.1981,-57.77
615.2981,-57.49
615.3981,-57.11
615.4981,-56.17
615.5981,-55.51
615.6981,-56.26
615.7981,-55.7
615.8981,-57.49
615.9981,-58.71
616.0981,-58.8
616.1981,-59.18
616.2981,-59.27
616.3981,-59.09
616.4981,-58.24
616.5981,-57.2
616.6981,-57.58
616.7981,-57.49
616.8981,-58.33
616.9981,-57.39
617.0981,-57.11
617.1981,-58.52
617.2981,-59.27
617.3981,-59.09
617.4981,-59.37
617.5981,-58.33
617.6981,-58.99
617.7981,-57.11
617.8981,-55.79
617.9981,-56.45
618.0981,-56.64
618.1981,-56.26
618.2981,-56.54
618.3981,-57.2
618.4981,-58.14
618.5981,-58.14
618.6981,-58.62
618.7981,-59.27
618.8981,-59.27
618.9981,-58.24
619.0981,-57.39
619.1981,-58.33
619.2981,-57.3
619.3981,-56.26
619.4981,-55.32
619.5981,-56.36
619.6981,-57.67
619.7981,-56.64
619.8981,-57.39
619.9981,-57.77
620.0980999999999,-58.62
620.1981000000001,-58.52
620.2981,-57.49
620.3981,-56.92
620.4981,-57.2
620.5980999999999,-58.33
620.6981000000001,-57.86
620.7981,-57.96
620.8981,-57.77
620.9981,-57.67
621.0980999999999,-57.96
621.1981000000001,-58.14
621.2981,-57.96
621.3981,-57.67
621.4981,-56.83
621.5980999999999,-57.67
621.6981000000001,-58.8
621.7981,-58.43
621.8981,-57.58
621.9981,-57.02
622.0980999999999,-57.11
622.1981000000001,-56.92
622.2981,-56.45
622.3981,-57.2
622.4981,-58.71
622.5980999999999,-59.37
622.6981000000001,-58.24
622.7981,-57.86
622.8981,-56.92
622.9981,-57.39
623.0980999999999,-56.36
623.1981000000001,-55.98
623.2981,-56.83
623.3981,-56.83
623.4981,-56.64
623.5980999999999,-57.58
623.6981000000001,-57.49
623.7981,-57.39
623.8981,-57.02
623.9981,-57.3
624.0980999999999,-56.83
624.1981000000001,-57.49
624.2981,-57.39
624.3981,-58.05
624.4981,-58.9
624.5980999999999,-57.77
624.6981000000001,-57.3
624.7981,-56.36
624.8981,-56.26
624.9981,-56.17
625.0980999999999,-57.86
625.1981000000001,-57.2
625.2981,-57.02
625.3981,-58.05
625.4981,-59.93
625.5980999999999,-59.18
625.6981000000001,-57.86
625.7981,-57.49
625.8981,-57.58
625.9981,-57.3
626.0980999999999,-57.58
626.1981000000001,-56.92
626.2981,-57.02
626.3981,-57.58
626.4981,-57.3
626.5980999999999,-59.09
626.6981000000001,-58.62
626.7981,-59.09
626.8981,-58.05
626.9981,-57.3
627.0980999999999,-57.11
627.1981000000001,-56.83
627.2981,-56.73
627.3981,-54.85
627.4981,-55.79
627.5980999999999,-55.6
627.6981000000001,-56.54
627.7981,-57.58
627.8981,-57.67
627.9981,-57.58
628.0980999999999,-56.83
628.1981000000001,-57.67
628.2981,-58.43
628.3981,-57.2
628.4981,-57.2
628.5980999999999,-58.62
628.6981000000001,-56.73
628.7981,-56.54
628.8981,-57.02
628.9981,-57.77
629.0980999999999,-58.24
629.1981000000001,-57.67
629.2981,-56.92
629.3981,-56.92
629.4981,-57.77
629.5980999999999,-57.49
629.6981000000001,-56.54
629.7981,-55.23
629.8981,-56.54
629.9981,-57.39
630.0980999999999,-57.49
630.1981000000001,-57.58
630.2981,-56.83
630.3981,-56.64
630.4981,-57.96
630.5980999999999,-58.24
630.6981000000001,-57.96
630.7981,-58.33
630.8981,-58.33
630.9981,-57.2
631.0980999999999,-57.77
631.1981000000001,-57.86
631.2981,-58.14
631.3981,-56.92
631.4981,-56.92
631.5980999999999,-56.07
631.6981000000001,-56.92
631.7981,-58.05
631.8981,-59.27
631.9981,-59.09
632.0980999999999,-57.86
632.1981000000001,-58.24
632.2981,-60.31
632.3981,-58.05
632.4981,-58.33
632.5980999999999,-58.9
632.6981000000001,-58.24
632.7981,-58.43
632.8981,-57.67
632.9981,-56.83
633.0980999999999,-56.07
633.1981000000001,-57.2
633.2981,-58.43
633.3981,-58.99
633.4981,-59.27
633.5980999999999,-58.71
633.6981000000001,-58.24
633.7981,-58.24
633.8981,-58.24
633.9981,-58.9
634.0980999999999,-57.3
634.1981000000001,-56.17
634.2981,-57.02
634.3981,-56.26
634.4981,-57.2
634.5980999999999,-58.9
634.6981000000001,-59.46
634.7981,-57.77
634.8981,-57.67
634.9981,-58.14
635.0980999999999,-57.58
635.1981000000001,-58.71
635.2981,-57.58
635.3981,-56.92
635.4981,-56.92
635.5980999999999,-56.92
635.6981000000001,-57.3
635.7981,-56.92
635.8981,-57.49
635.9981,-59.74
636.0980999999999,-58.43
636.1981000000001,-58.8
636.2981,-58.14
636.3981,-57.67
636.4981,-57.39
636.5980999999999,-57.2
636.6981000000001,-57.11
636.7981,-58.9
636.8981,-56.36
636.9981,-56.73
637.0980999999999,-58.05
637.1981000000001,-58.05
637.2981,-57.49
637.3981,-57.49
637.4981,-56.45
637.5980999999999,-58.43
637.6981000000001,-59.46
637.7981,-58.14
637.8981,-57.39
637.9981,-58.05
638.0980999999999,-57.77
638.1981000000001,-56.36
638.2981,-57.86
638.3981,-58.33
638.4981,-57.67
638.5980999999999,-57.3
638.6981000000001,-57.49
638.7981,-57.2
638.8981,-59.46
638.9981,-57.39
639.0980999999999,-56.83
639.1981000000001,-57.02
639.2981,-57.2
639.3981,-56.64
639.4981,-55.89
639.5980999999999,-55.7
639.6981000000001,-56.92
639.7981,-57.96
639.8981,-56.73
639.9981,-58.05
640.0980999999999,-59.65
640.1981000000001,-58.43
640.2981,-57.86
640.3981,-57.58
640.4981,-57.11
640.5980999999999,-60.12
640.6981000000001,-59.74
640.7981,-59.74
640.8981,-58.71
640.9981,-57.58
641.0980999999999,-56.73
641.1981000000001,-57.11
641.2981,-57.02
641.3981,-57.2
641.4981,-57.2
641.5980999999999,-57.67
641.6981000000001,-56.36
641.7981,-57.3
641.8981,-58.62
641.9981,-59.37
642.0980999999999,-58.43
642.1981000000001,-57.67
642.2981,-57.96
642.3981,-57.77
642.4981,-57.2
642.5980999999999,-57.96
642.6981000000001,-57.77
642.7981,-57.3
642.8981,-58.52
642.9981,-58.14
643.0980999999999,-57.77
643.1981000000001,-57.2
643.2981,-56.64
643.3981,-57.11
643.4981,-57.11
643.5980999999999,-58.52
643.6981000000001,-58.05
643.7981,-57.39
643.8981,-58.05
643.9981,-56.92
644.0980999999999,-56.92
644.1981000000001,-58.05
644.2981,-58.71
644.3981,-58.8
644.4981,-59.65
644.5980999999999,-59.74
644.6981000000001,-57.86
644.7981,-57.3
644.8981,-56.07
644.9981,-54.85
645.0980999999999,-55.79
645.1981000000001,-55.23
645.2981,-55.98
645.3981,-56.92
645.4981,-56.73
645.5980999999999,-57.67
645.6981000000001,-58.33
645.7981,-58.33
645.8981,-58.33
645.9981,-57.96
646.0980999999999,-57.3
646.1981000000001,-57.67
646.2981,-57.77
646.3981,-57.39
646.4981,-56.45
646.5980999999999,-55.13
646.6981000000001,-57.02
646.7981,-57.49
646.8981,-56.54
646.9981,-57.02
647.0980999999999,-58.62
647.1981000000001,-57.58
647.2981,-56.92
647.3981,-56.92
647.4981,-57.2
647.5980999999999,-57.96
647.6981000000001,-56.92
647.7981,-57.2
647.8981,-58.71
647.9981,-59.37
648.0980999999999,-59.18
648.1981000000001,-58.71
648.2981,-58.43
648.3981,-59.37
648.4981,-60.03
648.5980999999999,-57.77
648.6981000000001,-56.73
648.7981,-56.92
648.8981,-57.58
648.9981,-56.26
649.0980999999999,-56.26
649.1981000000001,-57.67
649.2981,-57.96
649.3981,-56.92
649.4981,-57.67
649.5980999999999,-58.71
649.6981000000001,-58.71
649.7981,-57.3
649.8981,-55.79
649.9981,-56.64
650.0980999999999,-56.54
650.1981000000001,-56.73
650.2981,-56.73
650.3981,-57.02
650.4981,-57.77
650.5980999999999,-59.18
650.6981000000001,-58.71
650.7981,-57.58
650.8981,-58.52
650.9981,-57.49
651.0980999999999,-57.96
651.1981000000001,-57.67
651.2981,-57.58
651.3981,-58.62
651.4981,-57.96
651.5980999999999,-57.2
651.6981000000001,-57.49
651.7981,-57.2
651.8981,-57.77
651.9981,-57.96
652.0980999999999,-57.96
652.1981000000001,-58.9
652.2981,-58.43
652.3981,-57.2
652.4981,-57.58
652.5980999999999,-57.67
652.6981000000001,-56.17
652.7981,-55.7
652.8981,-55.7
652.9981,-56.36
653.0980999999999,-56.07
653.1981000000001,-57.11
653.2981,-56.92
653.3981,-56.17
653.4981,-56.64
653.5980999999999,-58.05
653.6981000000001,-57.67
653.7981,-57.86
653.8981,-56.73
653.9981,-57.77
654.0980999999999,-58.62
654.1981000000001,-57.2
654.2981,-56.73
654.3981,-57.86
654.4981,-57.2
654.5980999999999,-56.83
654.6981000000001,-57.77
654.7981,-56.07
654.8981,-55.98
654.9981,-56.26
655.0980999999999,-57.49
655.1981000000001,-57.67
655.2981,-58.05
655.3981,-58.33
655.4981,-57.86
655.5980999999999,-58.05
655.6981000000001,-57.58
655.7981,-56.36
655.8981,-57.11
655.9981,-58.33
656.0980999999999,-57.2
656.1981000000001,-56.54
656.2981,-56.92
656.3981,-57.77
656.4981,-57.67
656.5980999999999,-57.11
656.6981000000001,-57.11
656.7981,-56.07
656.8981,-57.11
656.9981,-57.67
657.0980999999999,-57.86
657.1981000000001,-56.83
657.2981,-57.49
657.3981,-57.3
657.4981,-57.96
657.5980999999999,-58.71
657.6981000000001,-59.56
657.7981,-58.99
657.8981,-58.14
657.9981,-57.2
658.0980999999999,-57.2
658.1981000000001,-57.49
658.2981,-57.39
658.3981,-55.6
658.4981,-54.66
658.5980999999999,-55.7
658.6981000000001,-57.02
658.7981,-57.02
658.8981,-56.73
658.9981,-58.05
659.0980999999999,-58.24
659.1981000000001,-57.49
659.2981,-57.3
659.3981,-56.83
659.4981,-57.49
659.5980999999999,-57.67
659.6981000000001,-57.86
659.7981,-58.05
659.8981,-57.3
659.9981,-57.39
660.0980999999999,-58.9
660.1981000000001,-59.09
660.2981,-57.49
660.3981,-58.14
660.4981,-58.33
660.5980999999999,-57.49
660.6981000000001,-56.64
660.7981,-56.07
660.8981,-56.64
660.9981,-57.77
661.0980999999999,-58.05
661.1981000000001,-57.3
661.2981,-57.67
661.3981,-58.14
661.4981,-57.3
661.5980999999999,-57.3
661.6981000000001,-57.77
661.7981,-57.49
661.8981,-56.64
661.9981,-56.07
662.0980999999999,-56.17
662.1981000000001,-56.36
662.2981,-57.3
662.3981,-57.86
662.4981,-56.36
662.5980999999999,-56.45
662.6981000000001,-56.83
662.7981,-55.7
662.8981,-57.77
662.9981,-59.09
663.0980999999999,-58.24
663.1981000000001,-59.37
663.2981,-59.09
663.3981,-58.8
663.4981,-57.77
663.5980999999999,-57.02
663.6981000000001,-56.26
663.7981,-57.67
663.8981,-57.49
663.9981,-57.77
664.0980999999999,-56.26
664.1981000000001,-56.92
664.2981,-57.11
664.3981,-57.2
664.4981,-57.39
664.5980999999999,-57.11
664.6981000000001,-56.92
664.7981,-56.45
664.8981,-56.83
664.9981,-57.11
665.0980999999999,-56.83
665.1981000000001,-56.36
665.2981,-56.26
665.3981,-57.02
665.4981,-57.58
665.5980999999999,-56.92
665.6981000000001,-57.77
665.7981,-57.49
665.8981,-58.05
665.9981,-57.96
666.0980999999999,-57.96
666.1981000000001,-56.26
666.2981,-57.39
666.3981,-57.86
666.4981,-58.24
666.5980999999999,-56.54
666.6981000000001,-55.6
666.7981,-56.36
666.8981,-57.67
666.9981,-57.58
667.0980999999999,-57.39
667.1981000000001,-57.11
667.2981,-56.83
667.3981,-58.24
667.4981,-57.49
667.5980999999999,-57.11
667.6981000000001,-55.89
667.7981,-56.17
667.8981,-56.73
667.9981,-57.86
668.0980999999999,-55.7
668.1981000000001,-55.42
668.2981,-57.77
668.3981,-56.92
668.4981,-57.58
668.5980999999999,-58.8
668.6981000000001,-59.09
668.7981,-58.14
668.8981,-58.33
668.9981,-58.05
669.0980999999999,-58.9
669.1981000000001,-61.06
669.2981,-59.46
669.3981,-57.49
669.4981,-57.86
669.5980999999999,-58.99
669.6981000000001,-58.33
669.7981,-57.58
669.8981,-57.2
669.9981,-57.49
670.0980999999999,-57.2
670.1981000000001,-56.45
670.2981,-56.26
670.3981,-57.49
670.4981,-57.39
670.5980999999999,-55.98
670.6981000000001,-55.89
670.7981,-58.33
670.8981,-58.9
670.9981,-57.67
671.0980999999999,-57.11
671.1981000000001,-58.05
671.2981,-58.14
671.3981,-58.43
671.4981,-57.96
671.5980999999999,-57.2
671.6981000000001,-56.73
671.7981,-57.02
671.8981,-57.77
671.9981,-57.02
672.0980999999999,-57.3
672.1981000000001,-56.36
672.2981,-57.67
672.3981,-57.58
672.4981,-56.83
672.5980999999999,-56.92
672.6981000000001,-57.39
672.7981,-57.96
672.8981,-57.67
672.9981,-58.24
673.0980999999999,-57.49
673.1981000000001,-57.39
673.2981,-56.92
673.3981,-56.07
673.4981,-56.07
673.5980999999999,-56.07
673.6981000000001,-55.7
673.7981,-56.45
673.8981,-57.49
673.9981,-58.62
674.0980999999999,-58.52
674.1981000000001,-56.64
674.2981,-56.64
674.3981,-56.83
674.4981,-56.92
674.5980999999999,-57.67
674.6981000000001,-58.24
674.7981,-58.33
674.8981,-56.36
674.9981,-55.89
675.0980999999999,-56.73
675.1981000000001,-58.71
675.2981,-57.96
675.3981,-56.92
675.4981,-57.39
675.5980999999999,-57.96
675.6981000000001,-58.24
675.7981,-57.11
675.8981,-56.73
675.9981,-56.83
676.0980999999999,-56.17
676.1981000000001,-55.79
676.2981,-56.07
676.3981,-56.36
676.4981,-57.49
676.5980999999999,-57.49
676.6981000000001,-58.62
676.7981,-57.86
676.8981,-57.2
676.9981,-57.77
677.0980999999999,-57.49
677.1981000000001,-57.77
677.2981,-57.39
677.3981,-57.67
677.4981,-58.05
677.5980999999999,-57.11
677.6981000000001,-58.05
677.7981,-58.24
677.8981,-56.54
677.9981,-56.64
678.0980999999999,-55.98
678.1981000000001,-56.64
678.2981,-56.73
678.3981,-57.39
678.4981,-58.24
678.5980999999999,-57.11
678.6981000000001,-56.73
678.7981,-56.54
678.8981,-56.45
678.9981,-56.36
679.0980999999999,-58.05
679.1981000000001,-59.84
679.2981,-58.8
679.3981,-57.49
679.4981,-56.07
679.5980999999999,-55.51
679.6981000000001,-57.86
679.7981,-57.2
679.8981,-56.73
679.9981,-56.45
680.0980999999999,-56.64
680.1981000000001,-54.94
680.2981,-54.85
680.3981,-56.45
680.4981,-55.79
680.5980999999999,-56.83
680.6981000000001,-58.43
680.7981,-57.11
680.8981,-56.92
680.9981,-56.07
681.0980999999999,-55.89
681.1981000000001,-56.64
681.2981,-55.7
681.3981,-54.76
681.4981,-55.51
681.5980999999999,-55.89
681.6981000000001,-55.04
681.7981,-56.54
681.8981,-56.54
681.9981,-57.49
682.0980999999999,-57.02
682.1981000000001,-56.07
682.2981,-57.39
682.3981,-58.33
682.4981,-59.27
682.5980999999999,-59.27
682.6981000000001,-57.02
682.7981,-57.77
682.8981,-58.14
682.9981,-56.07
