Frequency(MHz),Power(dBmV/100kHz)_20260203_091320
107.8981,-82.29
107.9981,-53.3
108.0981,-53.02
108.1981,-55.93
108.2981,-55.18
108.3981,-52.73
108.4981,-51.98
108.5981,-53.02
108.6981,-52.64
108.7981,-53.2
108.8981,-53.67
108.9981,-53.96
109.0981,-53.86
109.1981,-53.39
109.2981,-52.36
109.3981,-54.43
109.4981,-54.62
109.5981,-54.24
109.6981,-53.02
109.7981,-53.11
109.8981,-52.45
109.9981,-52.92
110.0981,-53.11
110.1981,-52.45
110.2981,-53.02
110.3981,-53.67
110.4981,-53.11
110.5981,-52.54
110.6981,-53.2
110.7981,-54.05
110.8981,-53.39
110.9981,-52.73
111.0981,-53.49
111.1981,-52.92
111.2981,-52.26
111.3981,-52.07
111.4981,-51.79
111.5981,-51.04
111.6981,-51.7
111.7981,-51.7
111.8981,-53.2
111.9981,-53.2
112.0981,-52.54
112.1981,-52.83
112.2981,-53.77
112.3981,-53.2
112.4981,-53.2
112.5981,-53.67
112.6981,-53.2
112.7981,-53.67
112.8981,-53.39
112.9981,-52.73
113.0981,-53.2
113.1981,-55.18
113.2981,-53.77
113.3981,-52.92
113.4981,-53.77
113.5981,-53.67
113.6981,-52.45
113.7981,-52.64
113.8981,-53.11
113.9981,-53.11
114.0981,-53.3
114.1981,-54.9
114.2981,-53.02
114.3981,-52.07
114.4981,-51.6
114.5981,-52.73
114.6981,-51.23
114.7981,-51.89
114.8981,-52.45
114.9981,-53.02
115.0981,-54.05
115.1981,-52.26
115.2981,-51.13
115.3981,-50.66
115.4981,-50.19
115.5981,-51.79
115.6981,-53.86
115.7981,-54.33
115.8981,-53.3
115.9981,-51.98
116.0981,-52.64
116.1981,-54.14
116.2981,-54.24
116.3981,-53.02
116.4981,-53.96
116.5981,-55.65
116.6981,-55.09
116.7981,-54.14
116.8981,-54.33
116.9981,-52.64
117.0981,-52.92
117.1981,-51.51
117.2981,-52.17
117.3981,-53.39
117.4981,-52.54
117.5981,-52.07
117.6981,-51.79
117.7981,-51.89
117.8981,-51.89
117.9981,-52.07
118.0981,-50.85
118.1981,-51.23
118.2981,-52.26
118.3981,-52.36
118.4981,-53.11
118.5981,-53.58
118.6981,-53.67
118.7981,-52.45
118.8981,-52.54
118.9981,-54.24
119.0981,-55.09
119.1981,-54.05
119.2981,-53.58
119.3981,-53.86
119.4981,-53.49
119.5981,-53.86
119.6981,-53.77
119.7981,-54.24
119.8981,-54.05
119.9981,-52.54
120.0981,-51.42
120.1981,-52.83
120.2981,-54.14
120.3981,-51.42
120.4981,-52.54
120.5981,-52.73
120.6981,-52.07
120.7981,-51.89
120.8981,-52.17
120.9981,-52.45
121.0981,-52.54
121.1981,-51.98
121.2981,-52.64
121.3981,-53.11
121.4981,-52.26
121.5981,-51.51
121.6981,-53.86
121.7981,-54.52
121.8981,-53.58
121.9981,-54.05
122.0981,-54.05
122.1981,-54.24
122.2981,-52.54
122.3981,-52.92
122.4981,-55.65
122.5981,-54.8
122.6981,-54.52
122.7981,-53.39
122.8981,-52.83
122.9981,-53.11
123.0981,-53.86
123.1981,-53.02
123.2981,-52.26
123.3981,-52.45
123.4981,-53.39
123.5981,-53.11
123.6981,-53.11
123.7981,-52.64
123.8981,-54.24
123.9981,-55.65
124.0981,-53.11
124.1981,-52.92
124.2981,-53.67
124.3981,-54.24
124.4981,-53.39
124.5981,-52.73
124.6981,-52.17
124.7981,-53.3
124.8981,-53.11
124.9981,-54.05
125.0981,-54.43
125.1981,-52.54
125.2981,-53.96
125.3981,-53.67
125.4981,-52.64
125.5981,-51.23
125.6981,-51.04
125.7981,-50.66
125.8981,-51.42
125.9981,-51.6
126.0981,-51.51
126.1981,-51.98
126.2981,-52.45
126.3981,-53.2
126.4981,-52.64
126.5981,-53.3
126.6981,-52.73
126.7981,-51.23
126.8981,-51.6
126.9981,-53.02
127.0981,-54.05
127.1981,-53.96
127.2981,-53.67
127.3981,-52.36
127.4981,-52.64
127.5981,-52.64
127.6981,-53.2
127.7981,-52.83
127.8981,-51.7
127.9981,-53.02
128.0981,-54.05
128.1981,-52.26
128.2981,-52.17
128.3981,-52.83
128.4981,-53.2
128.5981,-54.52
128.6981,-54.52
128.7981,-53.11
128.8981,-51.89
128.9981,-51.98
129.0981,-51.7
129.1981,-52.73
129.2981,-53.3
129.3981,-53.02
129.4981,-52.45
129.5981,-52.92
129.6981,-52.54
129.7981,-51.7
129.8981,-53.2
129.9981,-54.14
130.0981,-53.02
130.1981,-52.92
130.2981,-53.86
130.3981,-53.58
130.4981,-53.2
130.5981,-54.05
130.6981,-53.96
130.7981,-53.39
130.8981,-52.45
130.9981,-52.92
131.0981,-52.36
131.1981,-51.98
131.2981,-51.23
131.3981,-51.89
131.4981,-53.3
131.5981,-52.64
131.6981,-53.02
131.7981,-52.54
131.8981,-53.58
131.9981,-53.11
132.0981,-53.02
132.1981,-52.64
132.2981,-51.6
132.3981,-52.73
132.4981,-53.3
132.5981,-53.67
132.6981,-53.49
132.7981,-52.73
132.8981,-53.67
132.9981,-53.2
133.0981,-53.86
133.1981,-53.86
133.2981,-55.18
133.3981,-55.65
133.4981,-54.05
133.5981,-54.05
133.6981,-53.86
133.7981,-53.39
133.8981,-53.77
133.9981,-54.99
134.0981,-53.3
134.1981,-51.04
134.2981,-50.47
134.3981,-52.07
134.4981,-53.02
134.5981,-52.36
134.6981,-52.64
134.7981,-52.54
134.8981,-53.86
134.9981,-51.98
135.0981,-52.45
135.1981,-53.2
135.2981,-53.39
135.3981,-54.05
135.4981,-53.67
135.5981,-52.45
135.6981,-51.79
135.7981,-52.36
135.8981,-53.86
135.9981,-54.33
136.0981,-54.62
136.1981,-54.71
136.2981,-53.67
136.3981,-53.2
136.4981,-53.39
136.5981,-53.49
136.6981,-53.2
136.7981,-54.05
136.8981,-53.39
136.9981,-53.86
137.0981,-52.92
137.1981,-52.64
137.2981,-53.11
137.3981,-52.17
137.4981,-51.79
137.5981,-52.45
137.6981,-53.2
137.7981,-52.26
137.8981,-51.42
137.9981,-52.92
138.0981,-54.71
138.1981,-53.86
138.2981,-53.3
138.3981,-53.11
138.4981,-53.2
138.5981,-52.92
138.6981,-52.92
138.7981,-53.2
138.8981,-54.71
138.9981,-53.39
139.0981,-52.92
139.1981,-52.92
139.2981,-52.73
139.3981,-52.54
139.4981,-54.62
139.5981,-54.05
139.6981,-51.89
139.7981,-52.26
139.8981,-53.86
139.9981,-53.58
140.0981,-52.26
140.1981,-52.45
140.2981,-52.73
140.3981,-53.11
140.4981,-53.11
140.5981,-52.07
140.6981,-52.83
140.7981,-54.33
140.8981,-50.85
140.9981,-52.92
141.0981,-53.02
141.1981,-52.83
141.2981,-54.14
141.3981,-53.67
141.4981,-54.43
141.5981,-54.9
141.6981,-52.07
141.7981,-51.6
141.8981,-53.67
141.9981,-53.49
142.0981,-53.3
142.1981,-52.54
142.2981,-53.77
142.3981,-53.49
142.4981,-52.36
142.5981,-52.36
142.6981,-52.92
142.7981,-53.67
142.8981,-55.74
142.9981,-54.71
143.0981,-51.89
143.1981,-50.29
143.2981,-51.79
143.3981,-53.3
143.4981,-52.36
143.5981,-54.05
143.6981,-53.39
143.7981,-54.05
143.8981,-52.45
143.9981,-52.45
144.0981,-53.49
144.1981,-54.14
144.2981,-53.67
144.3981,-54.62
144.4981,-54.24
144.5981,-54.8
144.6981,-53.2
144.7981,-53.02
144.8981,-52.07
144.9981,-52.54
145.0981,-52.07
145.1981,-53.11
145.2981,-53.3
145.3981,-52.45
145.4981,-51.7
145.5981,-51.42
145.6981,-51.32
145.7981,-50.19
145.8981,-51.89
145.9981,-52.07
146.0981,-53.2
146.1981,-53.77
146.2981,-54.33
146.3981,-53.3
146.4981,-51.42
146.5981,-51.79
146.6981,-52.54
146.7981,-53.2
146.8981,-54.9
146.9981,-54.99
147.0981,-53.77
147.1981,-53.2
147.2981,-53.02
147.3981,-53.96
147.4981,-55.09
147.5981,-55.09
147.6981,-52.83
147.7981,-52.83
147.8981,-52.73
147.9981,-53.11
148.0981,-53.49
148.1981,-52.92
148.2981,-52.64
148.3981,-52.36
148.4981,-51.98
148.5981,-50.94
148.6981,-51.51
148.7981,-52.64
148.8981,-52.17
148.9981,-52.54
149.0981,-53.77
149.1981,-54.99
149.2981,-54.33
149.3981,-51.89
149.4981,-52.92
149.5981,-52.83
149.6981,-52.92
149.7981,-54.43
149.8981,-54.43
149.9981,-54.9
150.0981,-54.52
150.1981,-53.67
150.2981,-55.84
150.3981,-53.39
150.4981,-52.92
150.5981,-52.26
150.6981,-52.26
150.7981,-52.26
150.8981,-52.45
150.9981,-51.42
151.0981,-51.79
151.1981,-50.66
151.2981,-51.32
151.3981,-53.2
151.4981,-51.51
151.5981,-51.98
151.6981,-51.79
151.7981,-51.42
151.8981,-52.07
151.9981,-52.92
152.0981,-52.64
152.1981,-52.83
152.2981,-52.54
152.3981,-52.83
152.4981,-53.67
152.5981,-55.56
152.6981,-54.05
152.7981,-52.54
152.8981,-52.83
152.9981,-53.49
153.0981,-55.74
153.1981,-54.8
153.2981,-52.83
153.3981,-51.51
153.4981,-52.83
153.5981,-53.49
153.6981,-53.49
153.7981,-52.83
153.8981,-51.32
153.9981,-52.83
154.0981,-52.83
154.1981,-51.98
154.2981,-51.7
154.3981,-50.38
154.4981,-50.19
154.5981,-51.89
154.6981,-52.17
154.7981,-52.26
154.8981,-52.73
154.9981,-53.49
155.0981,-52.54
155.1981,-52.45
155.2981,-53.39
155.3981,-52.64
155.4981,-52.54
155.5981,-54.14
155.6981,-55.84
155.7981,-54.99
155.8981,-53.67
155.9981,-52.92
156.0981,-52.73
156.1981,-54.05
156.2981,-54.14
156.3981,-53.86
156.4981,-53.02
156.5981,-52.54
156.6981,-52.26
156.7981,-52.07
156.8981,-52.92
156.9981,-53.49
157.0981,-53.11
157.1981,-53.11
157.2981,-52.17
157.3981,-50.85
157.4981,-51.7
157.5981,-50.76
157.6981,-50.1
157.7981,-51.42
157.8981,-53.2
157.9981,-53.67
158.0981,-52.45
158.1981,-53.02
158.2981,-52.83
158.3981,-53.02
158.4981,-54.43
158.5981,-54.24
158.6981,-53.77
158.7981,-54.05
158.8981,-53.67
158.9981,-53.58
159.0981,-54.05
159.1981,-53.77
159.2981,-53.49
159.3981,-54.24
159.4981,-53.11
159.5981,-52.73
159.6981,-52.83
159.7981,-52.73
159.8981,-51.7
159.9981,-52.73
160.0981,-53.02
160.1981,-53.39
160.2981,-52.83
160.3981,-52.73
160.4981,-52.92
160.5981,-52.45
160.6981,-51.51
160.7981,-52.17
160.8981,-52.73
160.9981,-52.83
161.0981,-54.05
161.1981,-53.77
161.2981,-52.64
161.3981,-51.98
161.4981,-52.36
161.5981,-52.45
161.6981,-53.86
161.7981,-53.86
161.8981,-53.77
161.9981,-52.92
162.0981,-52.36
162.1981,-51.04
162.2981,-50.47
162.3981,-52.54
162.4981,-53.39
162.5981,-54.05
162.6981,-54.24
162.7981,-52.45
162.8981,-51.89
162.9981,-53.11
163.0981,-52.07
163.1981,-53.2
163.2981,-53.3
163.3981,-52.92
163.4981,-53.77
163.5981,-53.11
163.6981,-52.92
163.7981,-53.39
163.8981,-54.05
163.9981,-54.05
164.0981,-54.24
164.1981,-53.96
164.2981,-53.02
164.3981,-52.07
164.4981,-53.39
164.5981,-52.92
164.6981,-52.83
164.7981,-52.07
164.8981,-52.64
164.9981,-53.49
165.0981,-53.67
165.1981,-52.83
165.2981,-50.94
165.3981,-51.42
165.4981,-49.82
165.5981,-51.23
165.6981,-53.49
165.7981,-54.71
165.8981,-55.46
165.9981,-53.02
166.0981,-51.23
166.1981,-51.7
166.2981,-51.51
166.3981,-53.58
166.4981,-54.05
166.5981,-54.24
166.6981,-54.9
166.7981,-54.52
166.8981,-53.49
166.9981,-52.54
167.0981,-52.45
167.1981,-53.96
167.2981,-55.27
167.3981,-54.71
167.4981,-52.54
167.5981,-50.94
167.6981,-51.32
167.7981,-51.6
167.8981,-51.6
167.9981,-50.94
168.0981,-52.73
168.1981,-53.3
168.2981,-51.79
168.3981,-51.51
168.4981,-53.2
168.5981,-52.45
168.6981,-52.54
168.7981,-51.98
168.8981,-51.23
168.9981,-51.89
169.0981,-52.54
169.1981,-51.42
169.2981,-52.64
169.3981,-53.77
169.4981,-54.52
169.5981,-53.77
169.6981,-54.52
169.7981,-54.71
169.8981,-55.09
169.9981,-53.67
170.0981,-53.49
170.1981,-53.02
170.2981,-52.64
170.3981,-52.07
170.4981,-52.45
170.5981,-51.7
170.6981,-52.45
170.7981,-50.1
170.8981,-49.63
170.9981,-50.38
171.0981,-51.79
171.1981,-51.42
171.2981,-51.13
171.3981,-52.17
171.4981,-51.04
171.5981,-49.91
171.6981,-51.13
171.7981,-51.79
171.8981,-51.7
171.9981,-51.51
172.0981,-52.83
172.1981,-53.11
172.2981,-52.17
172.3981,-53.49
172.4981,-53.02
172.5981,-51.98
172.6981,-52.54
172.7981,-54.43
172.8981,-54.9
172.9981,-52.17
173.0981,-51.04
173.1981,-52.92
173.2981,-51.04
173.3981,-50.94
173.4981,-53.3
173.5981,-54.9
173.6981,-52.92
173.7981,-52.07
173.8981,-51.79
173.9981,-51.51
174.0981,-51.42
174.1981,-51.98
174.2981,-51.51
174.3981,-50.19
174.4981,-51.42
174.5981,-52.64
174.6981,-52.36
174.7981,-51.89
174.8981,-52.17
174.9981,-51.51
175.0981,-52.73
175.1981,-52.83
175.2981,-53.49
175.3981,-54.99
175.4981,-53.58
175.5981,-52.73
175.6981,-53.2
175.7981,-53.2
175.8981,-54.14
175.9981,-55.27
176.0981,-54.33
176.1981,-52.73
176.2981,-51.42
176.3981,-50.94
176.4981,-50.1
176.5981,-50.94
176.6981,-51.04
176.7981,-52.73
176.8981,-53.58
176.9981,-52.07
177.0981,-50.1
177.1981,-50.76
177.2981,-50.66
177.3981,-51.32
177.4981,-53.96
177.5981,-52.07
177.6981,-52.07
177.7981,-53.11
177.8981,-51.79
177.9981,-52.26
178.0981,-52.36
178.1981,-53.58
178.2981,-54.24
178.3981,-53.58
178.4981,-53.39
178.5981,-53.67
178.6981,-53.49
178.7981,-54.05
178.8981,-53.39
178.9981,-52.64
179.0981,-52.54
179.1981,-54.24
179.2981,-53.39
179.3981,-52.64
179.4981,-53.11
179.5981,-51.89
179.6981,-51.32
179.7981,-52.54
179.8981,-52.17
179.9981,-51.7
180.0981,-52.54
180.1981,-52.92
180.2981,-51.7
180.3981,-51.51
180.4981,-51.51
180.5981,-50.76
180.6981,-51.23
180.7981,-53.67
180.8981,-53.86
180.9981,-52.07
181.0981,-51.51
181.1981,-51.98
181.2981,-52.45
181.3981,-53.02
181.4981,-53.58
181.5981,-53.77
181.6981,-52.54
181.7981,-50.1
181.8981,-51.42
181.9981,-52.45
182.0981,-51.98
182.1981,-53.58
182.2981,-52.36
182.3981,-51.42
182.4981,-50.76
182.5981,-50.94
182.6981,-50.57
182.7981,-51.79
182.8981,-53.02
182.9981,-51.6
183.0981,-53.02
183.1981,-53.39
183.2981,-51.79
183.3981,-52.45
183.4981,-51.98
183.5981,-51.98
183.6981,-52.17
183.7981,-51.6
183.8981,-51.7
183.9981,-52.54
184.0981,-53.02
184.1981,-53.39
184.2981,-53.2
184.3981,-53.02
184.4981,-52.54
184.5981,-51.6
184.6981,-51.6
184.7981,-50.57
184.8981,-50.57
184.9981,-50.66
185.0981,-51.42
185.1981,-51.04
185.2981,-51.13
185.3981,-50.19
185.4981,-50.66
185.5981,-52.92
185.6981,-52.17
185.7981,-50.29
185.8981,-51.13
185.9981,-51.6
186.0981,-52.45
186.1981,-53.77
186.2981,-53.58
186.3981,-54.43
186.4981,-53.58
186.5981,-53.49
186.6981,-52.92
186.7981,-52.73
186.8981,-54.71
186.9981,-53.96
187.0981,-52.73
187.1981,-51.98
187.2981,-52.64
187.3981,-52.07
187.4981,-50.94
187.5981,-51.13
187.6981,-51.23
187.7981,-50.94
187.8981,-49.82
187.9981,-49.53
188.0981,-50.66
188.1981,-51.79
188.2981,-51.04
188.3981,-51.32
188.4981,-51.98
188.5981,-50.66
188.6981,-50.76
188.7981,-52.45
188.8981,-53.2
188.9981,-52.73
189.0981,-52.54
189.1981,-53.49
189.2981,-51.7
189.3981,-53.3
189.4981,-55.27
189.5981,-55.84
189.6981,-54.52
189.7981,-53.77
189.8981,-51.79
189.9981,-52.73
190.0981,-54.62
190.1981,-53.3
190.2981,-52.73
190.3981,-51.89
190.4981,-53.11
190.5981,-50.57
190.6981,-50.38
190.7981,-52.36
190.8981,-52.45
190.9981,-51.79
191.0981,-51.32
191.1981,-50.66
191.2981,-50.29
191.3981,-51.23
191.4981,-50.66
191.5981,-50.85
191.6981,-53.39
191.7981,-54.99
191.8981,-54.05
191.9981,-54.9
192.0981,-55.27
192.1981,-52.73
192.2981,-53.77
192.3981,-54.05
192.4981,-54.33
192.5981,-55.74
192.6981,-54.9
192.7981,-52.26
192.8981,-52.17
192.9981,-52.45
193.0981,-52.07
193.1981,-51.79
193.2981,-51.98
193.3981,-52.54
193.4981,-53.2
193.5981,-52.92
193.6981,-51.7
193.7981,-51.42
193.8981,-50.94
193.9981,-51.98
194.0981,-52.45
194.1981,-52.64
194.2981,-51.79
194.3981,-51.42
194.4981,-52.54
194.5981,-52.45
194.6981,-51.13
194.7981,-51.6
194.8981,-51.6
194.9981,-53.58
195.0981,-55.27
195.1981,-54.05
195.2981,-53.02
195.3981,-53.2
195.4981,-52.54
195.5981,-52.64
195.6981,-53.86
195.7981,-53.49
195.8981,-53.77
195.9981,-51.89
196.0981,-52.45
196.1981,-52.36
196.2981,-52.45
196.3981,-52.45
196.4981,-52.92
196.5981,-52.17
196.6981,-51.04
196.7981,-51.42
196.8981,-51.42
196.9981,-51.42
197.0981,-52.07
197.1981,-51.89
197.2981,-52.17
197.3981,-51.23
197.4981,-50.47
197.5981,-50.19
197.6981,-49.72
197.7981,-50.76
197.8981,-52.45
197.9981,-53.96
198.0981,-53.02
198.1981,-52.36
198.2981,-52.92
198.3981,-52.64
198.4981,-53.39
198.5981,-53.86
198.6981,-51.98
198.7981,-51.98
198.8981,-53.96
198.9981,-53.58
199.0981,-53.39
199.1981,-52.83
199.2981,-51.6
199.3981,-51.51
199.4981,-51.23
199.5981,-52.26
199.6981,-52.45
199.7981,-52.45
199.8981,-53.02
199.9981,-52.64
200.0981,-52.45
200.1981,-51.32
200.2981,-52.45
200.3981,-53.86
200.4981,-52.07
200.5981,-52.17
200.6981,-52.45
200.7981,-51.32
200.8981,-51.23
200.9981,-51.89
201.0981,-52.92
201.1981,-53.11
201.2981,-53.02
201.3981,-51.6
201.4981,-51.89
201.5981,-52.26
201.6981,-52.36
201.7981,-50.76
201.8981,-51.23
201.9981,-53.11
202.0981,-52.07
202.1981,-53.3
202.2981,-52.45
202.3981,-51.32
202.4981,-50.94
202.5981,-52.36
202.6981,-51.89
202.7981,-52.36
202.8981,-52.92
202.9981,-53.2
203.0981,-52.73
203.1981,-53.2
203.2981,-53.2
203.3981,-52.36
203.4981,-52.73
203.5981,-52.73
203.6981,-51.89
203.7981,-53.77
203.8981,-52.73
203.9981,-51.89
204.0981,-52.45
204.1981,-52.36
204.2981,-51.7
204.3981,-51.89
204.4981,-52.17
204.5981,-51.89
204.6981,-51.23
204.7981,-52.07
204.8981,-52.07
204.9981,-50.66
205.0981,-51.32
205.1981,-51.42
205.2981,-51.79
205.3981,-51.51
205.4981,-52.45
205.5981,-52.36
205.6981,-51.42
205.7981,-51.51
205.8981,-54.05
205.9981,-53.77
206.0981,-54.43
206.1981,-54.99
206.2981,-54.8
206.3981,-53.39
206.4981,-52.83
206.5981,-52.73
206.6981,-53.39
206.7981,-51.98
206.8981,-52.07
206.9981,-52.07
207.0981,-52.54
207.1981,-52.36
207.2981,-51.89
207.3981,-50.76
207.4981,-50.47
207.5981,-50.94
207.6981,-53.02
207.7981,-52.36
207.8981,-50.94
207.9981,-50.0
208.0981,-48.97
208.1981,-49.91
208.2981,-50.47
208.3981,-51.51
208.4981,-50.47
208.5981,-51.7
208.6981,-52.26
208.7981,-52.73
208.8981,-52.45
208.9981,-52.45
209.0981,-52.83
209.1981,-53.49
209.2981,-53.96
209.3981,-54.24
209.4981,-53.96
209.5981,-52.26
209.6981,-52.36
209.7981,-52.26
209.8981,-52.83
209.9981,-51.7
210.0981,-50.47
210.1981,-49.72
210.2981,-49.44
210.3981,-49.91
210.4981,-50.29
210.5981,-50.76
210.6981,-51.42
210.7981,-51.42
210.8981,-51.23
210.9981,-50.19
211.0981,-49.63
211.1981,-50.76
211.2981,-50.1
211.3981,-49.72
211.4981,-50.66
211.5981,-51.79
211.6981,-51.89
211.7981,-51.89
211.8981,-52.83
211.9981,-54.62
212.0981,-54.62
212.1981,-54.24
212.2981,-56.5
212.3981,-54.33
212.4981,-55.09
212.5981,-55.56
212.6981,-53.77
212.7981,-53.96
212.8981,-53.3
212.9981,-51.51
213.0981,-51.6
213.1981,-51.04
213.2981,-51.04
213.3981,-49.72
213.4981,-50.29
213.5981,-51.42
213.6981,-52.17
213.7981,-50.0
213.8981,-50.66
213.9981,-51.04
214.0981,-50.76
214.1981,-52.07
214.2981,-50.94
214.3981,-49.34
214.4981,-49.82
214.5981,-52.17
214.6981,-54.71
214.7981,-53.58
214.8981,-55.09
214.9981,-53.58
215.0981,-52.73
215.1981,-53.39
215.2981,-53.49
215.3981,-53.86
215.4981,-54.62
215.5981,-53.58
215.6981,-50.94
215.7981,-51.7
215.8981,-51.51
215.9981,-51.89
216.0981,-52.07
216.1981,-51.42
216.2981,-51.6
216.3981,-50.85
216.4981,-50.38
216.5981,-51.23
216.6981,-51.6
216.7981,-51.04
216.8981,-50.85
216.9981,-51.6
217.0981,-51.42
217.1981,-51.6
217.2981,-52.64
217.3981,-52.64
217.4981,-54.43
217.5981,-54.71
217.6981,-52.64
217.7981,-53.11
217.8981,-53.58
217.9981,-53.02
218.0981,-53.2
218.1981,-53.3
218.2981,-54.14
218.3981,-53.2
218.4981,-52.54
218.5981,-52.54
218.6981,-53.11
218.7981,-52.45
218.8981,-52.45
218.9981,-51.13
219.0981,-50.66
219.1981,-50.94
219.2981,-51.51
219.3981,-50.85
219.4981,-52.83
219.5981,-53.77
219.6981,-52.45
219.7981,-51.32
219.8981,-51.79
219.9981,-51.32
220.0981,-51.23
220.1981,-52.83
220.2981,-53.77
220.3981,-55.46
220.4981,-53.77
220.5981,-52.73
220.6981,-53.77
220.7981,-52.83
220.8981,-52.54
220.9981,-52.26
221.0981,-51.04
221.1981,-52.54
221.2981,-52.26
221.3981,-51.6
221.4981,-50.94
221.5981,-51.04
221.6981,-51.32
221.7981,-51.51
221.8981,-51.79
221.9981,-50.47
222.0981,-52.17
222.1981,-51.6
222.2981,-51.04
222.3981,-50.94
222.4981,-50.85
222.5981,-51.7
222.6981,-51.04
222.7981,-51.79
222.8981,-53.67
222.9981,-54.05
223.0981,-53.49
223.1981,-52.45
223.2981,-53.96
223.3981,-53.49
223.4981,-53.11
223.5981,-54.33
223.6981,-53.3
223.7981,-51.42
223.8981,-50.66
223.9981,-51.04
224.0981,-51.7
224.1981,-51.79
224.2981,-52.26
224.3981,-52.17
224.4981,-51.32
224.5981,-51.04
224.6981,-49.91
224.7981,-49.53
224.8981,-52.26
224.9981,-52.64
225.0981,-51.7
225.1981,-51.51
225.2981,-51.42
225.3981,-51.13
225.4981,-51.32
225.5981,-52.64
225.6981,-54.52
225.7981,-54.24
225.8981,-54.62
225.9981,-55.37
226.0981,-54.52
226.1981,-53.96
226.2981,-53.96
226.3981,-54.24
226.4981,-53.39
226.5981,-53.67
226.6981,-54.05
226.7981,-53.96
226.8981,-54.33
226.9981,-52.45
227.0981,-50.66
227.1981,-50.94
227.2981,-50.0
227.3981,-50.47
227.4981,-50.76
227.5981,-50.94
227.6981,-51.04
227.7981,-49.91
227.8981,-49.53
227.9981,-51.6
228.0981,-51.79
228.1981,-50.85
228.2981,-53.86
228.3981,-52.64
228.4981,-50.57
228.5981,-51.42
228.6981,-51.89
228.7981,-52.83
228.8981,-54.43
228.9981,-55.18
229.0981,-55.65
229.1981,-54.8
229.2981,-52.73
229.3981,-52.64
229.4981,-53.86
229.5981,-52.54
229.6981,-52.17
229.7981,-51.79
229.8981,-51.89
229.9981,-51.42
230.0981,-52.64
230.1981,-52.36
230.2981,-52.36
230.3981,-51.23
230.4981,-51.13
230.5981,-50.76
230.6981,-50.19
230.7981,-51.7
230.8981,-51.32
230.9981,-50.76
231.0981,-51.23
231.1981,-51.32
231.2981,-52.26
231.3981,-51.23
231.4981,-51.7
231.5981,-52.54
231.6981,-52.73
231.7981,-53.86
231.8981,-53.77
231.9981,-54.14
232.0981,-54.71
232.1981,-54.52
232.2981,-55.09
232.3981,-53.86
232.4981,-53.86
232.5981,-53.77
232.6981,-52.54
232.7981,-51.6
232.8981,-52.92
232.9981,-51.7
233.0981,-50.66
233.1981,-51.23
233.2981,-51.04
233.3981,-51.6
233.4981,-50.29
233.5981,-50.29
233.6981,-51.04
233.7981,-50.94
233.8981,-50.76
233.9981,-51.98
234.0981,-52.36
234.1981,-52.54
234.2981,-52.36
234.3981,-52.36
234.4981,-52.64
234.5981,-53.67
234.6981,-54.14
234.7981,-53.58
234.8981,-53.02
234.9981,-53.67
235.0981,-52.64
235.1981,-52.26
235.2981,-53.58
235.3981,-53.49
235.4981,-54.62
235.5981,-53.67
235.6981,-53.02
235.7981,-52.64
235.8981,-51.32
235.9981,-51.13
236.0981,-51.98
236.1981,-52.54
236.2981,-52.07
236.3981,-53.11
236.4981,-54.14
236.5981,-51.79
236.6981,-51.98
236.7981,-51.79
236.8981,-51.89
236.9981,-52.54
237.0981,-53.11
237.1981,-53.58
237.2981,-52.73
237.3981,-50.29
237.4981,-50.76
237.5981,-52.73
237.6981,-54.33
237.7981,-53.77
237.8981,-54.71
237.9981,-53.49
238.0981,-51.98
238.1981,-53.96
238.2981,-53.39
238.3981,-54.99
238.4981,-53.49
238.5981,-52.64
238.6981,-52.73
238.7981,-51.13
238.8981,-50.1
238.9981,-48.5
239.0981,-49.44
239.1981,-51.6
239.2981,-52.36
239.3981,-52.83
239.4981,-52.92
239.5981,-51.89
239.6981,-51.04
239.7981,-52.07
239.8981,-52.83
239.9981,-52.83
240.0981,-53.96
240.1981,-53.3
240.2981,-52.83
240.3981,-53.86
240.4981,-53.11
240.5981,-53.02
240.6981,-52.73
240.7981,-52.92
240.8981,-51.6
240.9981,-52.54
241.0981,-51.89
241.1981,-50.47
241.2981,-51.79
241.3981,-52.64
241.4981,-52.45
241.5981,-51.6
241.6981,-52.17
241.7981,-52.64
241.8981,-53.49
241.9981,-52.26
242.0981,-50.19
242.1981,-51.32
242.2981,-50.47
242.3981,-50.29
242.4981,-53.11
242.5981,-55.27
242.6981,-53.77
242.7981,-52.73
242.8981,-51.23
242.9981,-51.6
243.0981,-53.11
243.1981,-53.86
243.2981,-54.14
243.3981,-53.39
243.4981,-51.32
243.5981,-51.42
243.6981,-51.79
243.7981,-54.43
243.8981,-53.67
243.9981,-52.73
244.0981,-51.98
244.1981,-50.94
244.2981,-50.0
244.3981,-49.44
244.4981,-49.44
244.5981,-49.72
244.6981,-50.66
244.7981,-51.79
244.8981,-50.57
244.9981,-51.79
245.0981,-50.1
245.1981,-50.1
245.2981,-50.94
245.3981,-51.7
245.4981,-53.3
245.5981,-54.43
245.6981,-53.96
245.7981,-54.14
245.8981,-53.3
245.9981,-52.64
246.0981,-54.05
246.1981,-53.67
246.2981,-53.58
246.3981,-52.83
246.4981,-53.02
246.5981,-52.26
246.6981,-51.89
246.7981,-51.79
246.8981,-51.04
246.9981,-50.57
247.0981,-51.7
247.1981,-50.85
247.2981,-49.82
247.3981,-50.1
247.4981,-50.85
247.5981,-49.06
247.6981,-48.87
247.7981,-48.97
247.8981,-50.47
247.9981,-51.23
248.0981,-52.92
248.1981,-54.52
248.2981,-54.33
248.3981,-53.49
248.4981,-52.54
248.5981,-53.02
248.6981,-54.33
248.7981,-54.43
248.8981,-53.39
248.9981,-53.77
249.0981,-52.92
249.1981,-53.96
249.2981,-54.71
249.3981,-54.05
249.4981,-53.11
249.5981,-52.17
249.6981,-53.11
249.7981,-51.98
249.8981,-51.04
249.9981,-51.32
250.0981,-52.36
250.1981,-50.66
250.2981,-49.72
250.3981,-50.1
250.4981,-49.72
250.5981,-51.51
250.6981,-51.7
250.7981,-51.42
250.8981,-51.6
250.9981,-50.76
251.0981,-51.98
251.1981,-52.64
251.2981,-52.45
251.3981,-53.49
251.4981,-53.49
251.5981,-53.02
251.6981,-54.43
251.7981,-54.43
251.8981,-54.05
251.9981,-55.74
252.0981,-55.93
252.1981,-53.58
252.2981,-51.04
252.3981,-50.0
252.4981,-50.29
252.5981,-52.83
252.6981,-53.67
252.7981,-53.11
252.8981,-51.23
252.9981,-50.19
253.0981,-50.57
253.1981,-50.38
253.2981,-50.66
253.3981,-50.57
253.4981,-53.2
253.5981,-54.05
253.6981,-54.24
253.7981,-51.42
253.8981,-50.76
253.9981,-49.82
254.0981,-49.82
254.1981,-52.26
254.2981,-53.49
254.3981,-54.33
254.4981,-54.43
254.5981,-53.49
254.6981,-54.05
254.7981,-53.96
254.8981,-52.45
254.9981,-53.77
255.0981,-53.77
255.1981,-53.3
255.2981,-52.54
255.3981,-51.79
255.4981,-51.79
255.5981,-51.32
255.6981,-50.85
255.7981,-50.19
255.8981,-51.42
255.9981,-52.64
256.0981,-53.39
256.1981,-52.17
256.2981,-51.04
256.3981,-51.32
256.4981,-52.54
256.5981,-51.79
256.6981,-52.36
256.7981,-53.67
256.8981,-52.64
256.9981,-52.17
257.0981,-51.42
257.1981,-52.17
257.2981,-52.45
257.3981,-52.64
257.4981,-53.86
257.5981,-54.71
257.6981,-52.07
257.7981,-50.94
257.8981,-51.04
257.9981,-51.6
258.0981,-51.79
258.1981,-52.26
258.2981,-52.92
258.3981,-52.26
258.4981,-51.79
258.5981,-50.57
258.6981,-49.82
258.7981,-49.63
258.8981,-51.13
258.9981,-54.14
259.0981,-54.24
259.1981,-54.43
259.2981,-53.49
259.3981,-52.45
259.4981,-52.36
259.5981,-53.11
259.6981,-53.67
259.7981,-53.96
259.8981,-54.24
259.9981,-53.2
260.0981,-51.51
260.1981,-51.32
260.2981,-51.98
260.3981,-51.42
260.4981,-52.83
260.5981,-52.73
260.6981,-51.13
260.7981,-50.1
260.8981,-50.76
260.9981,-50.94
261.0981,-51.13
261.1981,-51.13
261.2981,-51.04
261.3981,-52.26
261.4981,-52.83
261.5981,-51.7
261.6981,-51.79
261.7981,-50.0
261.8981,-50.1
261.9981,-50.0
262.0981,-51.42
262.1981,-52.36
262.2981,-53.58
262.3981,-53.96
262.4981,-53.49
262.5981,-53.77
262.6981,-54.71
262.7981,-54.99
262.8981,-55.37
262.9981,-54.8
263.0981,-54.33
263.1981,-52.83
263.2981,-52.73
263.3981,-52.54
263.4981,-52.64
263.5981,-53.2
263.6981,-53.39
263.7981,-52.83
263.8981,-50.85
263.9981,-50.94
264.0981,-49.25
264.1981,-49.91
264.2981,-50.0
264.3981,-50.57
264.4981,-51.89
264.5981,-51.42
264.6981,-52.17
264.7981,-51.7
264.8981,-50.94
264.9981,-50.94
265.0981,-51.32
265.1981,-51.98
265.2981,-52.83
265.3981,-52.64
265.4981,-52.07
265.5981,-54.71
265.6981,-55.74
265.7981,-54.52
265.8981,-54.33
265.9981,-54.24
266.0981,-53.67
266.1981,-53.86
266.2981,-53.02
266.3981,-52.54
266.4981,-53.11
266.5981,-52.26
266.6981,-51.51
266.7981,-51.42
266.8981,-52.36
266.9981,-51.79
267.0981,-51.13
267.1981,-50.76
267.2981,-50.76
267.3981,-51.32
267.4981,-50.19
267.5981,-49.72
267.6981,-50.57
267.7981,-51.98
267.8981,-53.2
267.9981,-54.33
268.0981,-51.98
268.1981,-53.11
268.2981,-54.24
268.3981,-54.9
268.4981,-54.99
268.5981,-54.05
268.6981,-53.39
268.7981,-54.71
268.8981,-54.43
268.9981,-54.33
269.0981,-55.93
269.1981,-54.05
269.2981,-53.39
269.3981,-53.39
269.4981,-52.17
269.5981,-50.85
269.6981,-51.32
269.7981,-52.45
269.8981,-50.57
269.9981,-50.38
270.0981,-51.7
270.1981,-51.51
270.2981,-51.6
270.3981,-51.32
270.4981,-50.38
270.5981,-49.91
270.6981,-51.51
270.7981,-52.83
270.8981,-52.73
270.9981,-52.54
271.0981,-53.02
271.1981,-52.83
271.2981,-52.54
271.3981,-53.2
271.4981,-54.14
271.5981,-53.3
271.6981,-54.14
271.7981,-54.05
271.8981,-53.39
271.9981,-53.11
272.0981,-52.64
272.1981,-51.04
272.2981,-51.79
272.3981,-51.7
272.4981,-53.58
272.5981,-52.92
272.6981,-49.82
272.7981,-49.53
272.8981,-50.0
272.9981,-50.66
273.0981,-51.98
273.1981,-51.23
273.2981,-51.89
273.3981,-52.45
273.4981,-51.32
273.5981,-49.25
273.6981,-50.94
273.7981,-51.51
273.8981,-52.83
273.9981,-52.36
274.0981,-51.79
274.1981,-52.26
274.2981,-52.73
274.3981,-53.11
274.4981,-52.83
274.5981,-53.67
274.6981,-55.18
274.7981,-54.43
274.8981,-53.02
274.9981,-52.64
275.0981,-51.51
275.1981,-50.76
275.2981,-51.7
275.3981,-51.7
275.4981,-51.98
275.5981,-51.79
275.6981,-51.79
275.7981,-52.45
275.8981,-53.02
275.9981,-51.89
276.0981,-51.13
276.1981,-52.36
276.2981,-52.36
276.3981,-53.3
276.4981,-52.92
276.5981,-52.26
276.6981,-52.07
276.7981,-52.26
276.8981,-52.64
276.9981,-52.07
277.0981,-53.39
277.1981,-53.96
277.2981,-54.24
277.3981,-53.11
277.4981,-52.92
277.5981,-52.36
277.6981,-51.51
277.7981,-52.54
277.8981,-53.49
277.9981,-52.54
278.0981,-51.42
278.1981,-52.26
278.2981,-50.76
278.3981,-50.47
278.4981,-50.66
278.5981,-51.79
278.6981,-54.05
278.7981,-54.62
278.8981,-53.39
278.9981,-51.79
279.0981,-52.64
279.1981,-53.58
279.2981,-54.62
279.3981,-54.71
279.4981,-54.14
279.5981,-54.43
279.6981,-54.9
279.7981,-54.9
279.8981,-53.49
279.9981,-52.73
280.0981,-53.3
280.1981,-53.86
280.2981,-52.64
280.3981,-53.39
280.4981,-52.92
280.5981,-53.49
280.6981,-52.17
280.7981,-50.47
280.8981,-50.66
280.9981,-52.36
281.0981,-50.94
281.1981,-51.79
281.2981,-52.36
281.3981,-51.7
281.4981,-51.23
281.5981,-51.04
281.6981,-50.38
281.7981,-51.42
281.8981,-52.26
281.9981,-53.77
282.0981,-53.11
282.1981,-53.58
282.2981,-54.9
282.3981,-55.09
282.4981,-55.74
282.5981,-56.12
282.6981,-55.56
282.7981,-53.77
282.8981,-52.45
282.9981,-53.58
283.0981,-54.52
283.1981,-53.02
283.2981,-51.42
283.3981,-51.7
283.4981,-53.3
283.5981,-53.49
283.6981,-51.89
283.7981,-51.6
283.8981,-51.6
283.9981,-50.76
284.0981,-50.85
284.1981,-51.13
284.2981,-50.38
284.3981,-50.29
284.4981,-51.42
284.5981,-50.1
284.6981,-51.42
284.7981,-53.3
284.8981,-55.46
284.9981,-54.33
285.0981,-53.86
285.1981,-53.3
285.2981,-54.33
285.3981,-55.84
285.4981,-55.56
285.5981,-54.05
285.6981,-54.43
285.7981,-53.58
285.8981,-54.52
285.9981,-55.46
286.0981,-53.58
286.1981,-52.17
286.2981,-51.7
286.3981,-51.13
286.4981,-51.04
286.5981,-50.57
286.6981,-50.57
286.7981,-50.94
286.8981,-50.29
286.9981,-51.89
287.0981,-49.63
287.1981,-49.91
287.2981,-49.91
287.3981,-50.85
287.4981,-53.86
287.5981,-53.77
287.6981,-53.3
287.7981,-54.05
287.8981,-54.05
287.9981,-52.64
288.0981,-52.73
288.1981,-53.86
288.2981,-55.84
288.3981,-56.31
288.4981,-55.18
288.5981,-55.56
288.6981,-54.9
288.7981,-54.14
288.8981,-53.58
288.9981,-53.02
289.0981,-53.3
289.1981,-53.67
289.2981,-52.54
289.3981,-50.66
289.4981,-50.76
289.5981,-51.23
289.6981,-51.04
289.7981,-51.04
289.8981,-52.07
289.9981,-51.51
290.0981,-53.3
290.1981,-51.7
290.2981,-51.89
290.3981,-51.7
290.4981,-50.66
290.5981,-53.58
290.6981,-55.27
290.7981,-55.37
290.8981,-54.43
290.9981,-54.24
291.0981,-54.05
291.1981,-54.14
291.2981,-54.43
291.3981,-54.14
291.4981,-54.14
291.5981,-54.52
291.6981,-54.14
291.7981,-54.14
291.8981,-53.39
291.9981,-54.33
292.0981,-54.71
292.1981,-53.11
292.2981,-52.36
292.3981,-52.07
292.4981,-52.26
292.5981,-53.3
292.6981,-53.49
292.7981,-52.73
292.8981,-52.17
292.9981,-52.73
293.0981,-51.98
293.1981,-50.94
293.2981,-50.66
293.3981,-51.51
293.4981,-52.36
293.5981,-54.05
293.6981,-55.18
293.7981,-56.59
293.8981,-56.87
293.9981,-56.4
294.0981,-54.24
294.1981,-54.52
294.2981,-54.8
294.3981,-54.24
294.4981,-54.05
294.5981,-52.45
294.6981,-53.49
294.7981,-54.24
294.8981,-53.49
294.9981,-52.73
295.0981,-55.46
295.1981,-54.9
295.2981,-54.24
295.3981,-54.62
295.4981,-53.11
295.5981,-52.36
295.6981,-54.52
295.7981,-54.33
295.8981,-54.9
295.9981,-54.62
296.0981,-54.05
296.1981,-54.14
296.2981,-53.86
296.3981,-54.05
296.4981,-53.11
296.5981,-53.11
296.6981,-53.2
296.7981,-53.49
296.8981,-53.39
296.9981,-54.71
297.0981,-54.9
297.1981,-53.02
297.2981,-52.07
297.3981,-53.67
297.4981,-53.39
297.5981,-50.57
297.6981,-52.26
297.7981,-51.51
297.8981,-51.7
297.9981,-51.98
298.0981,-51.89
298.1981,-51.6
298.2981,-52.26
298.3981,-53.11
298.4981,-53.77
298.5981,-52.83
298.6981,-54.05
298.7981,-54.52
298.8981,-54.14
298.9981,-56.21
299.8981,-82.29
299.9981,-55.93
300.0981,-56.59
300.1981,-54.33
300.2981,-53.96
300.3981,-54.71
300.4981,-54.99
300.5981,-55.27
300.6981,-56.03
300.7981,-55.37
300.8981,-53.58
300.9981,-52.26
301.0981,-52.54
301.1981,-52.45
301.2981,-53.39
301.3981,-53.3
301.4981,-52.64
301.5981,-52.17
301.6981,-52.36
301.7981,-51.89
301.8981,-50.57
301.9981,-50.76
302.0981,-51.7
302.1981,-50.76
302.2981,-50.85
302.3981,-51.23
302.4981,-50.94
302.5981,-52.17
302.6981,-51.98
302.7981,-52.92
302.8981,-53.49
302.9981,-53.96
303.0981,-53.96
303.1981,-53.86
303.2981,-53.96
303.3981,-54.62
303.4981,-54.33
303.5981,-53.77
303.6981,-53.77
303.7981,-54.05
303.8981,-53.11
303.9981,-53.58
304.0981,-54.24
304.1981,-53.2
304.2981,-52.92
304.3981,-52.36
304.4981,-51.7
304.5981,-51.13
304.6981,-51.23
304.7981,-50.29
304.8981,-49.72
304.9981,-50.57
305.0981,-52.45
305.1981,-52.83
305.2981,-52.73
305.3981,-54.05
305.4981,-52.83
305.5981,-52.36
305.6981,-52.83
305.7981,-54.05
305.8981,-52.92
305.9981,-54.14
306.0981,-54.14
306.1981,-54.43
306.2981,-54.33
306.3981,-54.43
306.4981,-54.43
306.5981,-54.33
306.6981,-54.14
306.7981,-53.67
306.8981,-52.73
306.9981,-52.45
307.0981,-52.54
307.1981,-53.58
307.2981,-53.02
307.3981,-51.7
307.4981,-52.64
307.5981,-53.39
307.6981,-51.79
307.7981,-50.57
307.8981,-51.23
307.9981,-50.94
308.0981,-52.17
308.1981,-52.17
308.2981,-52.64
308.3981,-54.33
308.4981,-54.43
308.5981,-55.65
308.6981,-54.24
308.7981,-54.52
308.8981,-54.62
308.9981,-53.77
309.0981,-53.86
309.1981,-55.09
309.2981,-54.99
309.3981,-56.31
309.4981,-57.91
309.5981,-54.62
309.6981,-53.96
309.7981,-53.58
309.8981,-52.07
309.9981,-53.02
310.0981,-53.11
310.1981,-52.64
310.2981,-52.73
310.3981,-50.57
310.4981,-50.38
310.5981,-50.66
310.6981,-52.26
310.7981,-53.02
310.8981,-52.17
310.9981,-52.26
311.0981,-52.64
311.1981,-51.6
311.2981,-52.17
311.3981,-53.3
311.4981,-53.2
311.5981,-53.86
311.6981,-53.77
311.7981,-54.05
311.8981,-53.39
311.9981,-53.3
312.0981,-54.33
312.1981,-54.71
312.2981,-54.8
312.3981,-54.52
312.4981,-53.58
312.5981,-53.49
312.6981,-54.24
312.7981,-53.86
312.8981,-53.86
312.9981,-53.58
313.0981,-52.73
313.1981,-51.79
313.2981,-51.79
313.3981,-52.73
313.4981,-51.79
313.5981,-52.26
313.6981,-53.02
313.7981,-53.96
313.8981,-53.77
313.9981,-53.3
314.0981,-54.71
314.1981,-54.14
314.2981,-54.9
314.3981,-54.71
314.4981,-54.24
314.5981,-53.77
314.6981,-54.43
314.7981,-56.12
314.8981,-56.4
314.9981,-53.58
315.0981,-52.07
315.1981,-53.86
315.2981,-54.24
315.3981,-53.39
315.4981,-51.7
315.5981,-52.36
315.6981,-53.77
315.7981,-52.92
315.8981,-52.83
315.9981,-52.26
316.0981,-54.05
316.1981,-54.71
316.2981,-53.86
316.3981,-52.45
316.4981,-53.39
316.5981,-54.71
316.6981,-54.99
316.7981,-54.8
316.8981,-54.43
316.9981,-53.77
317.0981,-54.43
317.1981,-54.71
317.2981,-55.37
317.3981,-54.8
317.4981,-54.14
317.5981,-53.02
317.6981,-54.71
317.7981,-55.09
317.8981,-52.92
317.9981,-53.02
318.0981,-52.92
318.1981,-52.64
318.2981,-52.73
318.3981,-52.07
318.4981,-52.54
318.5981,-50.57
318.6981,-50.47
318.7981,-51.42
318.8981,-51.7
318.9981,-51.04
319.0981,-51.6
319.1981,-51.98
319.2981,-51.7
319.3981,-52.45
319.4981,-55.27
319.5981,-56.03
319.6981,-55.09
319.7981,-53.11
319.8981,-53.39
319.9981,-54.99
320.0981,-55.65
320.1981,-56.03
320.2981,-53.86
320.3981,-53.58
320.4981,-53.67
320.5981,-53.02
320.6981,-54.43
320.7981,-53.67
320.8981,-52.17
320.9981,-51.42
321.0981,-53.2
321.1981,-52.83
321.2981,-50.76
321.3981,-50.76
321.4981,-51.13
321.5981,-51.6
321.6981,-52.54
321.7981,-53.2
321.8981,-51.51
321.9981,-51.13
322.0981,-50.76
322.1981,-50.85
322.2981,-52.17
322.3981,-52.17
322.4981,-53.58
322.5981,-54.99
322.6981,-54.33
322.7981,-54.8
322.8981,-56.4
322.9981,-55.93
323.0981,-54.99
323.1981,-54.8
323.2981,-55.09
323.3981,-53.58
323.4981,-53.49
323.5981,-53.67
323.6981,-54.8
323.7981,-52.92
323.8981,-52.83
323.9981,-53.3
324.0981,-52.45
324.1981,-51.32
324.2981,-50.57
324.3981,-51.23
324.4981,-51.6
324.5981,-52.07
324.6981,-53.39
324.7981,-51.42
324.8981,-51.42
324.9981,-52.45
325.0981,-52.92
325.1981,-51.89
325.2981,-52.73
325.3981,-52.92
325.4981,-53.3
325.5981,-54.43
325.6981,-54.71
325.7981,-54.62
325.8981,-55.37
325.9981,-54.24
326.0981,-53.58
326.1981,-53.67
326.2981,-54.8
326.3981,-55.18
326.4981,-54.33
326.5981,-53.11
326.6981,-51.7
326.7981,-51.04
326.8981,-52.17
326.9981,-53.3
327.0981,-52.54
327.1981,-52.17
327.2981,-52.26
327.3981,-50.47
327.4981,-50.85
327.5981,-51.32
327.6981,-50.57
327.7981,-51.32
327.8981,-52.17
327.9981,-52.17
328.0981,-52.64
328.1981,-54.43
328.2981,-54.05
328.3981,-52.83
328.4981,-52.83
328.5981,-54.52
328.6981,-55.09
328.7981,-53.86
328.8981,-53.39
328.9981,-53.67
329.0981,-54.62
329.1981,-53.49
329.2981,-53.02
329.3981,-53.67
329.4981,-53.2
329.5981,-53.49
329.6981,-54.05
329.7981,-53.11
329.8981,-52.73
329.9981,-52.83
330.0981,-50.38
330.1981,-50.57
330.2981,-50.19
330.3981,-51.6
330.4981,-54.14
330.5981,-53.77
330.6981,-53.3
330.7981,-52.73
330.8981,-53.58
330.9981,-52.54
331.0981,-54.05
331.1981,-54.71
331.2981,-54.43
331.3981,-53.96
331.4981,-54.71
331.5981,-53.86
331.6981,-54.43
331.7981,-54.52
331.8981,-55.09
331.9981,-53.86
332.0981,-53.02
332.1981,-53.96
332.2981,-53.3
332.3981,-53.2
332.4981,-55.74
332.5981,-53.86
332.6981,-54.24
332.7981,-55.46
332.8981,-54.24
332.9981,-53.11
333.0981,-53.58
333.1981,-52.17
333.2981,-50.47
333.3981,-51.89
333.4981,-53.11
333.5981,-54.52
333.6981,-53.49
333.7981,-53.49
333.8981,-53.2
333.9981,-53.86
334.0981,-54.05
334.1981,-55.09
334.2981,-55.74
334.3981,-53.96
334.4981,-53.96
334.5981,-54.05
334.6981,-53.2
334.7981,-53.11
334.8981,-53.86
334.9981,-53.67
335.0981,-52.17
335.1981,-52.92
335.2981,-53.3
335.3981,-53.58
335.4981,-52.64
335.5981,-51.13
335.6981,-50.66
335.7981,-51.6
335.8981,-53.3
335.9981,-53.39
336.0981,-52.83
336.1981,-53.49
336.2981,-53.39
336.3981,-52.17
336.4981,-52.17
336.5981,-52.54
336.6981,-53.77
336.7981,-54.52
336.8981,-54.99
336.9981,-54.99
337.0981,-53.96
337.1981,-53.77
337.2981,-53.86
337.3981,-54.62
337.4981,-52.92
337.5981,-52.07
337.6981,-50.85
337.7981,-51.89
337.8981,-51.89
337.9981,-51.42
338.0981,-51.6
338.1981,-51.79
338.2981,-52.64
338.3981,-51.6
338.4981,-51.13
338.5981,-52.83
338.6981,-53.3
338.7981,-53.02
338.8981,-50.85
338.9981,-51.79
339.0981,-52.83
339.1981,-53.02
339.2981,-53.86
339.3981,-54.43
339.4981,-54.99
339.5981,-54.62
339.6981,-54.43
339.7981,-56.12
339.8981,-56.31
339.9981,-56.03
340.0981,-53.86
340.1981,-53.86
340.2981,-54.05
340.3981,-54.05
340.4981,-53.96
340.5981,-53.96
340.6981,-53.02
340.7981,-52.45
340.8981,-53.11
340.9981,-52.64
341.0981,-51.7
341.1981,-51.89
341.2981,-51.79
341.3981,-52.92
341.4981,-52.73
341.5981,-52.45
341.6981,-51.23
341.7981,-50.57
341.8981,-51.89
341.9981,-51.79
342.0981,-52.73
342.1981,-52.83
342.2981,-53.49
342.3981,-54.71
342.4981,-54.62
342.5981,-55.37
342.6981,-54.9
342.7981,-54.8
342.8981,-54.71
342.9981,-53.96
343.0981,-52.26
343.1981,-52.73
343.2981,-53.49
343.3981,-53.11
343.4981,-52.07
343.5981,-51.79
343.6981,-52.64
343.7981,-52.64
343.8981,-53.49
343.9981,-53.58
344.0981,-53.2
344.1981,-52.54
344.2981,-53.2
344.3981,-51.7
344.4981,-51.79
344.5981,-52.45
344.6981,-52.54
344.7981,-53.96
344.8981,-53.77
344.9981,-53.3
345.0981,-53.49
345.1981,-53.67
345.2981,-53.49
345.3981,-54.9
345.4981,-56.4
345.5981,-56.12
345.6981,-55.46
345.7981,-53.58
345.8981,-53.77
345.9981,-54.62
346.0981,-53.58
346.1981,-54.62
346.2981,-54.14
346.3981,-52.45
346.4981,-52.36
346.5981,-51.89
346.6981,-51.98
346.7981,-52.17
346.8981,-52.36
346.9981,-52.83
347.0981,-53.02
347.1981,-52.83
347.2981,-51.51
347.3981,-51.04
347.4981,-51.98
347.5981,-52.92
347.6981,-53.2
347.7981,-52.54
347.8981,-53.86
347.9981,-53.39
348.0981,-54.14
348.1981,-53.96
348.2981,-54.05
348.3981,-53.39
348.4981,-54.9
348.5981,-53.77
348.6981,-53.49
348.7981,-53.86
348.8981,-53.58
348.9981,-54.8
349.0981,-54.14
349.1981,-53.02
349.2981,-53.2
349.3981,-52.64
349.4981,-52.64
349.5981,-52.64
349.6981,-53.02
349.7981,-52.54
349.8981,-53.2
349.9981,-54.14
350.0981,-54.71
350.1981,-53.02
350.2981,-54.14
350.3981,-54.43
350.4981,-55.74
350.5981,-55.46
350.6981,-54.05
350.7981,-53.96
350.8981,-54.43
350.9981,-54.8
351.0981,-55.27
351.1981,-53.49
351.2981,-52.92
351.3981,-53.3
351.4981,-53.2
351.5981,-53.67
351.6981,-54.33
351.7981,-54.24
351.8981,-53.96
351.9981,-54.33
352.0981,-52.26
352.1981,-51.7
352.2981,-54.14
352.3981,-53.58
352.4981,-53.02
352.5981,-54.33
352.6981,-54.24
352.7981,-52.26
352.8981,-52.17
352.9981,-52.45
353.0981,-53.58
353.1981,-54.14
353.2981,-53.2
353.3981,-52.92
353.4981,-54.24
353.5981,-55.09
353.6981,-55.18
353.7981,-55.74
353.8981,-54.62
353.9981,-54.14
354.0981,-56.4
354.1981,-57.06
354.2981,-55.46
354.3981,-53.86
354.4981,-53.11
354.5981,-53.2
354.6981,-52.54
354.7981,-53.49
354.8981,-53.86
354.9981,-54.24
355.0981,-54.43
355.1981,-54.52
355.2981,-53.39
355.3981,-54.05
355.4981,-55.09
355.5981,-54.62
355.6981,-53.86
355.7981,-54.24
355.8981,-54.33
355.9981,-54.14
356.0981,-53.11
356.1981,-53.11
356.2981,-54.99
356.3981,-54.99
356.4981,-54.33
356.5981,-54.43
356.6981,-54.62
356.7981,-55.74
356.8981,-55.84
356.9981,-54.99
357.0981,-54.14
357.1981,-53.96
357.2981,-53.11
357.3981,-53.39
357.4981,-52.92
357.5981,-51.32
357.6981,-51.7
357.7981,-51.89
357.8981,-51.89
357.9981,-51.7
358.0981,-50.94
358.1981,-52.36
358.2981,-51.42
358.3981,-52.26
358.4981,-52.36
358.5981,-52.83
358.6981,-53.2
358.7981,-54.05
358.8981,-52.92
358.9981,-53.3
359.0981,-55.65
359.1981,-56.5
359.2981,-54.62
359.3981,-53.67
359.4981,-54.71
359.5981,-55.65
359.6981,-54.9
359.7981,-54.99
359.8981,-54.43
359.9981,-53.67
360.0981,-54.71
360.1981,-54.43
360.2981,-54.9
360.3981,-54.8
360.4981,-53.2
360.5981,-53.02
360.6981,-52.54
360.7981,-51.98
360.8981,-51.89
360.9981,-52.07
361.0981,-51.7
361.1981,-53.02
361.2981,-53.96
361.3981,-51.89
361.4981,-51.13
361.5981,-52.64
361.6981,-51.51
361.7981,-51.42
361.8981,-54.05
361.9981,-54.9
362.0981,-55.27
362.1981,-55.18
362.2981,-56.4
362.3981,-54.9
362.4981,-55.09
362.5981,-55.56
362.6981,-55.93
362.7981,-55.09
362.8981,-55.27
362.9981,-54.8
363.0981,-53.2
363.1981,-53.58
363.2981,-53.02
363.3981,-53.67
363.4981,-53.96
363.5981,-53.39
363.6981,-53.96
363.7981,-55.09
363.8981,-54.71
363.9981,-53.39
364.0981,-52.73
364.1981,-51.32
364.2981,-50.94
364.3981,-50.85
364.4981,-53.49
364.5981,-53.67
364.6981,-53.67
364.7981,-54.24
364.8981,-54.33
364.9981,-55.56
365.0981,-56.31
365.1981,-55.18
365.2981,-54.71
365.3981,-55.09
365.4981,-54.14
365.5981,-54.99
365.6981,-53.96
365.7981,-54.43
365.8981,-54.71
365.9981,-53.86
366.0981,-53.39
366.1981,-51.98
366.2981,-51.79
366.3981,-52.54
366.4981,-52.54
366.5981,-53.2
366.6981,-53.86
366.7981,-53.2
366.8981,-51.7
366.9981,-51.98
367.0981,-53.3
367.1981,-53.86
367.2981,-53.49
367.3981,-54.52
367.4981,-55.84
367.5981,-55.27
367.6981,-53.49
367.7981,-52.92
367.8981,-54.05
367.9981,-54.33
368.0981,-54.05
368.1981,-54.14
368.2981,-55.09
368.3981,-55.37
368.4981,-55.27
368.5981,-55.65
368.6981,-54.14
368.7981,-54.24
368.8981,-54.71
368.9981,-54.14
369.0981,-54.05
369.1981,-53.3
369.2981,-52.73
369.3981,-51.98
369.4981,-51.42
369.5981,-53.11
369.6981,-53.67
369.7981,-54.71
369.8981,-53.67
369.9981,-53.2
370.0981,-53.86
370.1981,-52.92
370.2981,-53.02
370.3981,-53.86
370.4981,-54.52
370.5981,-54.9
370.6981,-54.8
370.7981,-54.33
370.8981,-54.05
370.9981,-54.71
371.0981,-52.92
371.1981,-52.54
371.2981,-54.43
371.3981,-55.46
371.4981,-55.65
371.5981,-54.33
371.6981,-53.58
371.7981,-53.02
371.8981,-54.52
371.9981,-53.49
372.0981,-52.83
372.1981,-52.45
372.2981,-52.26
372.3981,-52.26
372.4981,-53.67
372.5981,-54.14
372.6981,-55.18
372.7981,-53.02
372.8981,-52.83
372.9981,-53.67
373.0981,-54.52
373.1981,-55.09
373.2981,-54.71
373.3981,-54.43
373.4981,-53.86
373.5981,-54.43
373.6981,-55.65
373.7981,-55.09
373.8981,-53.86
373.9981,-53.11
374.0981,-53.96
374.1981,-54.8
374.2981,-53.3
374.3981,-52.07
374.4981,-52.45
374.5981,-53.39
374.6981,-52.73
374.7981,-52.92
374.8981,-51.79
374.9981,-51.79
375.0981,-53.86
375.1981,-53.77
375.2981,-52.73
375.3981,-53.2
375.4981,-53.58
375.5981,-53.49
375.6981,-53.11
375.7981,-53.2
375.8981,-54.8
375.9981,-54.71
376.0981,-55.09
376.1981,-55.46
376.2981,-55.56
376.3981,-54.71
376.4981,-54.9
376.5981,-54.33
376.6981,-55.18
376.7981,-54.52
376.8981,-54.33
376.9981,-53.11
377.0981,-52.64
377.1981,-53.58
377.2981,-53.11
377.3981,-53.2
377.4981,-52.45
377.5981,-51.79
377.6981,-51.6
377.7981,-51.6
377.8981,-51.13
377.9981,-52.36
378.0981,-52.45
378.1981,-51.51
378.2981,-52.54
378.3981,-53.49
378.4981,-53.58
378.5981,-53.39
378.6981,-53.49
378.7981,-54.99
378.8981,-57.44
378.9981,-56.87
379.0981,-56.4
379.1981,-54.8
379.2981,-55.65
379.3981,-54.8
379.4981,-53.96
379.5981,-53.67
379.6981,-53.86
379.7981,-54.52
379.8981,-53.49
379.9981,-53.86
380.0981,-53.2
380.1981,-52.83
380.2981,-54.24
380.3981,-53.67
380.4981,-52.54
380.5981,-52.36
380.6981,-52.83
380.7981,-53.2
380.8981,-53.77
380.9981,-53.3
381.0981,-52.64
381.1981,-53.49
381.2981,-51.89
381.3981,-52.73
381.4981,-54.05
381.5981,-52.92
381.6981,-53.2
381.7981,-53.58
381.8981,-53.39
381.9981,-55.09
382.0981,-54.8
382.1981,-54.52
382.2981,-55.37
382.3981,-53.77
382.4981,-54.05
382.5981,-54.43
382.6981,-54.62
382.7981,-54.99
382.8981,-53.67
382.9981,-53.11
383.0981,-53.39
383.1981,-52.64
383.2981,-53.67
383.3981,-53.86
383.4981,-53.67
383.5981,-53.86
383.6981,-54.05
383.7981,-54.71
383.8981,-53.11
383.9981,-51.98
384.0981,-53.11
384.1981,-53.2
384.2981,-53.39
384.3981,-53.86
384.4981,-54.24
384.5981,-52.64
384.6981,-53.02
384.7981,-54.33
384.8981,-53.49
384.9981,-54.52
385.0981,-55.37
385.1981,-56.21
385.2981,-56.31
385.3981,-54.52
385.4981,-55.09
385.5981,-53.77
385.6981,-52.54
385.7981,-53.39
385.8981,-52.07
385.9981,-51.7
386.0981,-52.83
386.1981,-52.26
386.2981,-53.58
386.3981,-53.02
386.4981,-52.07
386.5981,-52.54
386.6981,-52.36
386.7981,-54.14
386.8981,-54.43
386.9981,-53.58
387.0981,-53.67
387.1981,-54.24
387.2981,-53.96
387.3981,-54.05
387.4981,-54.52
387.5981,-53.96
387.6981,-54.71
387.7981,-55.65
387.8981,-54.14
387.9981,-54.8
388.0981,-56.03
388.1981,-56.03
388.2981,-55.93
388.3981,-55.09
388.4981,-53.96
388.5981,-53.49
388.6981,-53.58
388.7981,-53.2
388.8981,-54.43
388.9981,-54.24
389.0981,-53.86
389.1981,-53.49
389.2981,-52.26
389.3981,-53.49
389.4981,-53.96
389.5981,-53.77
389.6981,-52.73
389.7981,-53.67
389.8981,-53.39
389.9981,-54.8
390.0981,-54.05
390.1981,-55.18
390.2981,-55.46
390.3981,-53.86
390.4981,-53.58
390.5981,-52.83
390.6981,-52.92
390.7981,-53.02
390.8981,-54.24
390.9981,-54.9
391.0981,-54.52
391.1981,-53.96
391.2981,-53.67
391.3981,-53.39
391.4981,-53.02
391.5981,-53.96
391.6981,-54.43
391.7981,-52.92
391.8981,-53.2
391.9981,-53.58
392.0981,-53.86
392.1981,-53.3
392.2981,-53.02
392.3981,-53.86
392.4981,-55.18
392.5981,-54.62
392.6981,-53.67
392.7981,-53.58
392.8981,-54.24
392.9981,-54.43
393.0981,-55.56
393.1981,-55.18
393.2981,-55.65
393.3981,-55.65
393.4981,-54.99
393.5981,-54.71
393.6981,-55.27
393.7981,-54.71
393.8981,-54.05
393.9981,-53.02
394.0981,-51.7
394.1981,-51.23
394.2981,-51.98
394.3981,-52.83
394.4981,-51.98
394.5981,-53.96
394.6981,-54.05
394.7981,-53.02
394.8981,-52.73
394.9981,-53.39
395.0981,-54.71
395.1981,-53.77
395.2981,-54.71
395.3981,-54.43
395.4981,-53.96
395.5981,-54.9
395.6981,-53.49
395.7981,-53.86
395.8981,-56.4
395.9981,-55.46
396.0981,-55.93
396.1981,-56.78
396.2981,-55.93
396.3981,-54.99
396.4981,-54.43
396.5981,-53.67
396.6981,-52.92
396.7981,-53.49
396.8981,-52.92
396.9981,-52.92
397.0981,-52.45
397.1981,-52.17
397.2981,-52.83
397.3981,-51.23
397.4981,-50.0
397.5981,-51.42
397.6981,-52.36
397.7981,-54.43
397.8981,-54.52
397.9981,-53.39
398.0981,-54.33
398.1981,-54.33
398.2981,-54.99
398.3981,-55.18
398.4981,-54.8
398.5981,-56.5
398.6981,-56.12
398.7981,-55.27
398.8981,-54.14
398.9981,-55.37
399.0981,-54.52
399.1981,-54.24
399.2981,-54.8
399.3981,-54.8
399.4981,-53.86
399.5981,-52.54
399.6981,-52.64
399.7981,-53.49
399.8981,-54.62
399.9981,-54.43
400.0981,-54.33
400.1981,-54.24
400.2981,-52.45
400.3981,-52.17
400.4981,-51.79
400.5981,-51.98
400.6981,-51.79
400.7981,-53.49
400.8981,-53.2
400.9981,-53.77
401.0981,-54.43
401.1981,-53.11
401.2981,-52.92
401.3981,-53.86
401.4981,-54.52
401.5981,-55.37
401.6981,-54.62
401.7981,-54.8
401.8981,-55.93
401.9981,-54.99
402.0981,-54.33
402.1981,-54.9
402.2981,-54.62
402.3981,-53.02
402.4981,-54.9
402.5981,-54.52
402.6981,-54.33
402.7981,-53.77
402.8981,-53.3
402.9981,-52.17
403.0981,-52.54
403.1981,-54.33
403.2981,-56.87
403.3981,-55.46
403.4981,-53.58
403.5981,-53.11
403.6981,-53.02
403.7981,-54.14
403.8981,-54.14
403.9981,-54.43
404.0981,-53.11
404.1981,-53.96
404.2981,-53.49
404.3981,-53.3
404.4981,-54.8
404.5981,-55.65
404.6981,-55.46
404.7981,-55.65
404.8981,-54.33
404.9981,-54.8
405.0981,-54.33
405.1981,-53.77
405.2981,-53.58
405.3981,-54.14
405.4981,-53.02
405.5981,-51.98
405.6981,-51.79
405.7981,-50.94
405.8981,-51.23
405.9981,-51.89
406.0981,-52.07
406.1981,-52.92
406.2981,-54.33
406.3981,-55.56
406.4981,-54.43
406.5981,-54.9
406.6981,-55.56
406.7981,-56.03
406.8981,-54.8
406.9981,-55.27
407.0981,-54.8
407.1981,-54.62
407.2981,-54.14
407.3981,-55.46
407.4981,-55.46
407.5981,-55.09
407.6981,-54.24
407.7981,-54.9
407.8981,-55.56
407.9981,-53.49
408.0981,-53.02
408.1981,-53.2
408.2981,-53.39
408.3981,-54.71
408.4981,-54.9
408.5981,-54.14
408.6981,-54.24
408.7981,-54.9
408.8981,-54.8
408.9981,-53.02
409.0981,-52.73
409.1981,-53.3
409.2981,-54.8
409.3981,-56.03
409.4981,-54.8
409.5981,-54.8
409.6981,-55.18
409.7981,-54.8
409.8981,-54.71
409.9981,-55.18
410.0981,-55.37
410.1981,-55.84
410.2981,-54.71
410.3981,-53.96
410.4981,-53.11
410.5981,-54.52
410.6981,-56.21
410.7981,-54.05
410.8981,-53.67
410.9981,-54.24
411.0981,-54.52
411.1981,-53.11
411.2981,-53.02
411.3981,-53.39
411.4981,-53.77
411.5981,-52.92
411.6981,-53.86
411.7981,-53.86
411.8981,-53.96
411.9981,-54.24
412.0981,-52.54
412.1981,-52.92
412.2981,-55.37
412.3981,-53.77
412.4981,-53.39
412.5981,-54.52
412.6981,-54.71
412.7981,-54.33
412.8981,-55.27
412.9981,-55.37
413.0981,-55.65
413.1981,-54.99
413.2981,-53.2
413.3981,-53.39
413.4981,-53.39
413.5981,-53.11
413.6981,-53.11
413.7981,-52.17
413.8981,-52.36
413.9981,-52.36
414.0981,-53.96
414.1981,-55.09
414.2981,-54.05
414.3981,-53.86
414.4981,-53.86
414.5981,-53.67
414.6981,-54.62
414.7981,-55.27
414.8981,-55.84
414.9981,-54.14
415.0981,-54.62
415.1981,-55.46
415.2981,-53.77
415.3981,-54.24
415.4981,-53.77
415.5981,-53.86
415.6981,-54.14
415.7981,-55.37
415.8981,-54.9
415.9981,-53.86
416.0981,-55.18
416.1981,-54.52
416.2981,-54.8
416.3981,-54.05
416.4981,-52.92
416.5981,-52.36
416.6981,-51.7
416.7981,-53.11
416.8981,-52.64
416.9981,-51.51
417.0981,-51.51
417.1981,-52.64
417.2981,-51.89
417.3981,-53.2
417.4981,-53.96
417.5981,-54.62
417.6981,-54.62
417.7981,-53.39
417.8981,-53.86
417.9981,-53.39
418.0981,-54.71
418.1981,-55.65
418.2981,-53.96
418.3981,-53.96
418.4981,-53.96
418.5981,-54.24
418.6981,-55.27
418.7981,-53.96
418.8981,-52.64
418.9981,-54.62
419.0981,-55.18
419.1981,-54.62
419.2981,-53.77
419.3981,-53.39
419.4981,-52.92
419.5981,-54.14
419.6981,-52.73
419.7981,-53.02
419.8981,-53.77
419.9981,-53.3
420.0981,-52.54
420.1981,-52.45
420.2981,-51.98
420.3981,-51.6
420.4981,-52.73
420.5981,-54.52
420.6981,-54.33
420.7981,-53.3
420.8981,-55.65
420.9981,-56.5
421.0981,-54.99
421.1981,-54.71
421.2981,-55.56
421.3981,-55.27
421.4981,-55.56
421.5981,-55.46
421.6981,-54.9
421.7981,-54.43
421.8981,-53.77
421.9981,-53.77
422.0981,-53.96
422.1981,-53.96
422.2981,-54.52
422.3981,-54.24
422.4981,-52.83
422.5981,-53.3
422.6981,-53.86
422.7981,-54.33
422.8981,-54.05
422.9981,-54.24
423.0981,-53.2
423.1981,-52.54
423.2981,-52.17
423.3981,-53.86
423.4981,-54.99
423.5981,-54.14
423.6981,-55.18
423.7981,-54.43
423.8981,-54.14
423.9981,-54.05
424.0981,-54.62
424.1981,-55.37
424.2981,-54.24
424.3981,-54.33
424.4981,-54.05
424.5981,-54.62
424.6981,-53.77
424.7981,-52.73
424.8981,-52.83
424.9981,-53.2
425.0981,-53.77
425.1981,-54.05
425.2981,-54.05
425.3981,-53.77
425.4981,-52.45
425.5981,-52.45
425.6981,-52.92
425.7981,-53.49
425.8981,-53.96
425.9981,-53.96
426.0981,-55.18
426.1981,-55.37
426.2981,-55.46
426.3981,-55.37
426.4981,-54.8
426.5981,-53.77
426.6981,-54.8
426.7981,-55.84
426.8981,-54.99
426.9981,-53.58
427.0981,-53.86
427.1981,-54.24
427.2981,-54.24
427.3981,-54.43
427.4981,-56.12
427.5981,-55.84
427.6981,-54.71
427.7981,-53.2
427.8981,-52.36
427.9981,-52.07
428.0981,-52.45
428.1981,-53.02
428.2981,-52.92
428.3981,-53.96
428.4981,-53.49
428.5981,-53.58
428.6981,-54.14
428.7981,-53.2
428.8981,-53.39
428.9981,-53.58
429.0981,-53.58
429.1981,-54.52
429.2981,-54.43
429.3981,-54.24
429.4981,-55.46
429.5981,-55.56
429.6981,-56.21
429.7981,-55.27
429.8981,-54.52
429.9981,-54.33
430.0981,-53.96
430.1981,-53.96
430.2981,-54.43
430.3981,-54.52
430.4981,-53.96
430.5981,-53.02
430.6981,-53.86
430.7981,-53.39
430.8981,-52.73
430.9981,-53.11
431.0981,-53.77
431.1981,-54.71
431.2981,-54.9
431.3981,-55.09
431.4981,-54.33
431.5981,-53.96
431.6981,-55.27
431.7981,-54.33
431.8981,-53.02
431.9981,-54.33
432.0981,-53.86
432.1981,-54.33
432.2981,-54.99
432.3981,-55.65
432.4981,-55.18
432.5981,-55.93
432.6981,-55.18
432.7981,-54.99
432.8981,-55.27
432.9981,-56.97
433.0981,-54.33
433.1981,-53.49
433.2981,-52.36
433.3981,-51.6
433.4981,-51.6
433.5981,-52.07
433.6981,-53.02
433.7981,-54.14
433.8981,-54.43
433.9981,-54.62
434.0981,-53.3
434.1981,-53.58
434.2981,-54.05
434.3981,-54.62
434.4981,-54.8
434.5981,-55.37
434.6981,-55.65
434.7981,-54.62
434.8981,-54.62
434.9981,-54.43
435.0981,-54.33
435.1981,-54.52
435.2981,-55.18
435.3981,-54.8
435.4981,-55.09
435.5981,-54.52
435.6981,-53.86
435.7981,-54.62
435.8981,-55.46
435.9981,-54.43
436.0981,-54.24
436.1981,-53.77
436.2981,-53.49
436.3981,-54.71
436.4981,-53.86
436.5981,-52.64
436.6981,-52.07
436.7981,-51.42
436.8981,-53.11
436.9981,-54.33
437.0981,-53.39
437.1981,-54.24
437.2981,-54.99
437.3981,-54.05
437.4981,-54.8
437.5981,-54.52
437.6981,-54.24
437.7981,-54.99
437.8981,-54.9
437.9981,-56.21
438.0981,-54.14
438.1981,-53.39
438.2981,-54.52
438.3981,-56.12
438.4981,-54.9
438.5981,-53.49
438.6981,-54.52
438.7981,-55.74
438.8981,-54.43
438.9981,-53.49
439.0981,-54.14
439.1981,-55.46
439.2981,-54.52
439.3981,-54.14
439.4981,-52.92
439.5981,-53.58
439.6981,-53.49
439.7981,-53.02
439.8981,-52.45
439.9981,-53.2
440.0981,-54.24
440.1981,-53.86
440.2981,-54.99
440.3981,-55.27
440.4981,-53.77
440.5981,-53.77
440.6981,-54.71
440.7981,-54.71
440.8981,-54.52
440.9981,-54.14
441.0981,-53.86
441.1981,-55.09
441.2981,-54.52
441.3981,-54.14
441.4981,-53.3
441.5981,-55.46
441.6981,-54.43
441.7981,-54.43
441.8981,-54.99
441.9981,-56.21
442.0981,-54.62
442.1981,-53.58
442.2981,-52.73
442.3981,-53.49
442.4981,-53.86
442.5981,-54.43
442.6981,-55.09
442.7981,-53.96
442.8981,-53.77
442.9981,-53.67
443.0981,-54.24
443.1981,-54.71
443.2981,-55.46
443.3981,-56.78
443.4981,-54.05
443.5981,-54.05
443.6981,-54.99
443.7981,-55.09
443.8981,-55.65
443.9981,-55.27
444.0981,-54.99
444.1981,-54.71
444.2981,-55.27
444.3981,-56.78
444.4981,-55.18
444.5981,-53.96
444.6981,-53.86
444.7981,-53.02
444.8981,-53.11
444.9981,-52.07
445.0981,-52.17
445.1981,-52.83
445.2981,-53.49
445.3981,-54.24
445.4981,-54.24
445.5981,-53.58
445.6981,-53.11
445.7981,-54.71
445.8981,-55.84
445.9981,-56.59
446.0981,-55.27
446.1981,-56.03
446.2981,-54.71
446.3981,-53.2
446.4981,-53.58
446.5981,-53.58
446.6981,-54.8
446.7981,-55.84
446.8981,-54.71
446.9981,-54.52
447.0981,-53.96
447.1981,-53.58
447.2981,-54.14
447.3981,-54.8
447.4981,-53.58
447.5981,-52.54
447.6981,-53.02
447.7981,-53.39
447.8981,-52.26
447.9981,-52.54
448.0981,-52.64
448.1981,-52.26
448.2981,-52.26
448.3981,-53.39
448.4981,-55.74
448.5981,-54.62
448.6981,-53.77
448.7981,-53.39
448.8981,-55.18
448.9981,-55.27
449.0981,-54.14
449.1981,-54.9
449.2981,-55.37
449.3981,-55.27
449.4981,-55.37
449.5981,-54.24
449.6981,-55.37
449.7981,-55.84
449.8981,-54.14
449.9981,-53.2
450.0981,-52.45
450.1981,-51.51
450.2981,-53.2
450.3981,-53.2
450.4981,-53.2
450.5981,-53.39
450.6981,-52.92
450.7981,-52.64
450.8981,-53.11
450.9981,-54.62
451.0981,-54.8
451.1981,-54.14
451.2981,-52.26
451.3981,-51.89
451.4981,-53.39
451.5981,-53.77
451.6981,-54.05
451.7981,-54.43
451.8981,-53.11
451.9981,-53.3
452.0981,-53.49
452.1981,-54.05
452.2981,-55.09
452.3981,-54.99
452.4981,-54.14
452.5981,-54.43
452.6981,-54.52
452.7981,-55.18
452.8981,-53.3
452.9981,-50.94
453.0981,-51.32
453.1981,-52.73
453.2981,-53.02
453.3981,-53.2
453.4981,-52.73
453.5981,-53.39
453.6981,-53.67
453.7981,-53.96
453.8981,-52.26
453.9981,-52.83
454.0981,-54.9
454.1981,-53.11
454.2981,-53.39
454.3981,-55.46
454.4981,-54.8
454.5981,-53.86
454.6981,-54.71
454.7981,-55.18
454.8981,-55.74
454.9981,-54.8
455.0981,-54.52
455.1981,-54.14
455.2981,-54.24
455.3981,-54.33
455.4981,-55.65
455.5981,-55.09
455.6981,-54.14
455.7981,-53.39
455.8981,-53.2
455.9981,-53.11
456.0981,-53.2
456.1981,-52.26
456.2981,-52.36
456.3981,-53.49
456.4981,-52.73
456.5981,-51.51
456.6981,-50.76
456.7981,-51.89
456.8981,-54.62
456.9981,-54.8
457.0981,-54.8
457.1981,-54.05
457.2981,-54.9
457.3981,-55.56
457.4981,-54.05
457.5981,-53.49
457.6981,-54.71
457.7981,-53.86
457.8981,-53.3
457.9981,-54.99
458.0981,-54.71
458.1981,-53.86
458.2981,-53.77
458.3981,-53.96
458.4981,-52.17
458.5981,-52.36
458.6981,-52.26
458.7981,-54.8
458.8981,-55.46
458.9981,-56.03
459.0981,-53.96
459.1981,-52.64
459.2981,-53.02
459.3981,-53.11
459.4981,-53.3
459.5981,-53.86
459.6981,-54.43
459.7981,-53.86
459.8981,-53.67
459.9981,-54.33
460.0981,-54.9
460.1981,-54.24
460.2981,-54.99
460.3981,-55.65
460.4981,-55.09
460.5981,-54.62
460.6981,-54.52
460.7981,-57.34
460.8981,-54.43
460.9981,-53.77
461.0981,-53.3
461.1981,-53.11
461.2981,-53.58
461.3981,-52.83
461.4981,-52.45
461.5981,-52.64
461.6981,-53.86
461.7981,-54.71
461.8981,-53.86
461.9981,-52.45
462.0981,-51.32
462.1981,-52.92
462.2981,-54.62
462.3981,-53.58
462.4981,-53.39
462.5981,-53.39
462.6981,-54.62
462.7981,-54.62
462.8981,-54.9
462.9981,-54.62
463.0981,-54.14
463.1981,-55.37
463.2981,-54.99
463.3981,-54.8
463.4981,-55.18
463.5981,-55.37
463.6981,-55.37
463.7981,-54.62
463.8981,-54.99
463.9981,-55.27
464.0981,-54.71
464.1981,-52.92
464.2981,-53.49
464.3981,-54.05
464.4981,-52.83
464.5981,-51.32
464.6981,-50.66
464.7981,-51.23
464.8981,-51.98
464.9981,-52.26
465.0981,-53.02
465.1981,-53.58
465.2981,-53.11
465.3981,-53.39
465.4981,-54.24
465.5981,-54.24
465.6981,-55.18
465.7981,-56.59
465.8981,-57.06
465.9981,-55.56
466.0981,-54.43
466.1981,-55.37
466.2981,-54.24
466.3981,-54.8
466.4981,-54.9
466.5981,-53.67
466.6981,-55.27
466.7981,-55.18
466.8981,-54.9
466.9981,-54.05
467.0981,-53.67
467.1981,-53.2
467.2981,-53.58
467.3981,-53.49
467.4981,-54.33
467.5981,-54.05
467.6981,-54.05
467.7981,-52.92
467.8981,-51.89
467.9981,-52.83
468.0981,-53.2
468.1981,-52.64
468.2981,-53.2
468.3981,-54.14
468.4981,-54.71
468.5981,-54.52
468.6981,-54.71
468.7981,-54.8
468.8981,-54.14
468.9981,-54.71
469.0981,-55.46
469.1981,-54.14
469.2981,-53.67
469.3981,-53.96
469.4981,-54.33
469.5981,-53.02
469.6981,-53.2
469.7981,-55.27
469.8981,-53.67
469.9981,-52.92
470.0981,-52.92
470.1981,-54.05
470.2981,-55.18
470.3981,-54.62
470.4981,-54.62
470.5981,-55.18
470.6981,-54.62
470.7981,-53.11
470.8981,-53.49
470.9981,-53.49
471.0981,-54.33
471.1981,-55.74
471.2981,-54.99
471.3981,-53.02
471.4981,-53.39
471.5981,-54.9
471.6981,-55.74
471.7981,-55.09
471.8981,-53.77
471.9981,-53.58
472.0981,-53.49
472.1981,-55.09
472.2981,-55.46
472.3981,-55.46
472.4981,-55.18
472.5981,-54.71
472.6981,-52.36
472.7981,-54.05
472.8981,-54.05
472.9981,-54.52
473.0981,-53.49
473.1981,-51.98
473.2981,-52.07
473.3981,-51.98
473.4981,-54.24
473.5981,-56.21
473.6981,-55.74
473.7981,-55.93
473.8981,-55.46
473.9981,-54.99
474.0981,-54.8
474.1981,-54.43
474.2981,-54.62
474.3981,-54.43
474.4981,-55.74
474.5981,-56.03
474.6981,-54.99
474.7981,-53.86
474.8981,-54.14
474.9981,-54.8
475.0981,-53.96
475.1981,-53.49
475.2981,-53.49
475.3981,-52.83
475.4981,-52.64
475.5981,-53.3
475.6981,-52.64
475.7981,-52.45
475.8981,-52.73
475.9981,-51.7
476.0981,-52.83
476.1981,-53.02
476.2981,-52.07
476.3981,-52.36
476.4981,-53.02
476.5981,-51.98
476.6981,-52.26
476.7981,-53.86
476.8981,-55.84
476.9981,-55.27
477.0981,-53.58
477.1981,-53.02
477.2981,-53.2
477.3981,-53.58
477.4981,-54.14
477.5981,-53.86
477.6981,-53.77
477.7981,-53.39
477.8981,-53.49
477.9981,-52.45
478.0981,-52.36
478.1981,-51.42
478.2981,-51.42
478.3981,-51.51
478.4981,-51.7
478.5981,-51.6
478.6981,-51.51
478.7981,-50.94
478.8981,-51.89
478.9981,-50.94
479.0981,-51.51
479.1981,-51.32
479.2981,-51.98
479.3981,-52.64
479.4981,-51.98
479.5981,-51.98
479.6981,-52.54
479.7981,-54.33
479.8981,-52.83
479.9981,-53.11
480.0981,-52.07
480.1981,-52.17
480.2981,-51.51
480.3981,-51.23
480.4981,-52.07
480.5981,-53.2
480.6981,-52.26
480.7981,-52.36
480.8981,-52.64
480.9981,-53.2
481.0981,-53.49
481.1981,-52.45
481.2981,-52.54
481.3981,-53.39
481.4981,-53.86
481.5981,-54.33
481.6981,-53.39
481.7981,-53.58
481.8981,-53.67
481.9981,-53.3
482.0981,-53.11
482.1981,-53.77
482.2981,-54.52
482.3981,-54.99
482.4981,-54.43
482.5981,-55.18
482.6981,-53.2
482.7981,-53.96
482.8981,-54.8
482.9981,-54.71
483.0981,-55.18
483.1981,-54.99
483.2981,-55.46
483.3981,-55.09
483.4981,-54.14
483.5981,-53.67
483.6981,-54.43
483.7981,-53.39
483.8981,-53.77
483.9981,-54.71
484.0981,-54.33
484.1981,-53.58
484.2981,-53.67
484.3981,-53.3
484.4981,-53.67
484.5981,-52.92
484.6981,-53.3
484.7981,-54.14
484.8981,-53.96
484.9981,-52.92
485.0981,-53.58
485.1981,-53.02
485.2981,-53.86
485.3981,-53.86
485.4981,-55.56
485.5981,-56.97
485.6981,-55.74
485.7981,-56.59
485.8981,-56.87
485.9981,-57.16
486.0981,-55.74
486.1981,-55.27
486.2981,-55.56
486.3981,-54.99
486.4981,-54.33
486.5981,-53.96
486.6981,-53.77
486.7981,-53.39
486.8981,-52.83
486.9981,-53.3
487.0981,-53.77
487.1981,-53.02
487.2981,-53.02
487.3981,-54.43
487.4981,-52.64
487.5981,-53.39
487.6981,-53.49
487.7981,-53.3
487.8981,-54.8
487.9981,-54.33
488.0981,-53.96
488.1981,-53.2
488.2981,-53.2
488.3981,-53.58
488.4981,-53.2
488.5981,-54.43
488.6981,-56.31
488.7981,-54.71
488.8981,-53.67
488.9981,-53.39
489.0981,-53.3
489.1981,-54.52
489.2981,-54.33
489.3981,-53.96
489.4981,-53.96
489.5981,-53.3
489.6981,-53.39
489.7981,-52.54
489.8981,-53.11
489.9981,-53.2
490.0981,-54.05
490.1981,-54.99
490.2981,-55.37
490.3981,-55.09
490.4981,-53.77
490.5981,-53.2
490.6981,-53.96
490.7981,-54.05
490.8981,-54.99
490.9981,-55.56
491.8981,-82.29
491.9981,-54.71
492.0981,-56.69
492.1981,-54.9
492.2981,-54.14
492.3981,-54.33
492.4981,-54.71
492.5981,-55.37
492.6981,-55.65
492.7981,-55.09
492.8981,-54.24
492.9981,-54.43
493.0981,-53.39
493.1981,-53.58
493.2981,-53.39
493.3981,-51.98
493.4981,-51.7
493.5981,-53.2
493.6981,-53.86
493.7981,-52.73
493.8981,-53.2
493.9981,-52.92
494.0981,-54.43
494.1981,-53.49
494.2981,-53.3
494.3981,-54.9
494.4981,-56.59
494.5981,-56.03
494.6981,-54.43
494.7981,-54.99
494.8981,-56.69
494.9981,-55.18
495.0981,-53.86
495.1981,-53.96
495.2981,-54.43
495.3981,-55.09
495.4981,-54.71
495.5981,-54.43
495.6981,-53.96
495.7981,-53.77
495.8981,-54.9
495.9981,-54.05
496.0981,-54.9
496.1981,-54.52
496.2981,-53.3
496.3981,-52.83
496.4981,-52.73
496.5981,-53.3
496.6981,-52.45
496.7981,-51.98
496.8981,-53.77
496.9981,-53.02
497.0981,-52.73
497.1981,-52.17
497.2981,-53.2
497.3981,-55.46
497.4981,-54.99
497.5981,-55.18
497.6981,-55.56
497.7981,-55.27
497.8981,-54.99
497.9981,-54.43
498.0981,-54.52
498.1981,-54.52
498.2981,-53.86
498.3981,-54.05
498.4981,-53.86
498.5981,-54.24
498.6981,-53.96
498.7981,-54.33
498.8981,-53.67
498.9981,-52.83
499.0981,-54.62
499.1981,-54.52
499.2981,-53.96
499.3981,-53.3
499.4981,-53.77
499.5981,-53.3
499.6981,-53.96
499.7981,-53.49
499.8981,-53.11
499.9981,-53.96
500.0981,-52.92
500.1981,-53.2
500.2981,-54.05
500.3981,-53.86
500.4981,-53.11
500.5981,-53.3
500.6981,-54.05
500.7981,-54.52
500.8981,-54.43
500.9981,-54.33
501.0981,-56.31
501.1981,-55.27
501.2981,-54.14
501.3981,-54.52
501.4981,-54.71
501.5981,-53.86
501.6981,-53.77
501.7981,-53.02
501.8981,-52.83
501.9981,-53.02
502.0981,-53.39
502.1981,-53.3
502.2981,-53.67
502.3981,-52.64
502.4981,-54.05
502.5981,-53.77
502.6981,-53.96
502.7981,-54.9
502.8981,-53.77
502.9981,-54.62
503.0981,-54.62
503.1981,-54.52
503.2981,-54.24
503.3981,-53.96
503.4981,-54.52
503.5981,-55.65
503.6981,-54.62
503.7981,-56.4
503.8981,-56.12
503.9981,-55.93
504.0981,-55.56
504.1981,-55.74
504.2981,-55.37
504.3981,-54.8
504.4981,-54.05
504.5981,-53.86
504.6981,-52.73
504.7981,-52.07
504.8981,-53.3
504.9981,-52.45
505.0981,-52.54
505.1981,-53.3
505.2981,-53.2
505.3981,-52.92
505.4981,-52.83
505.5981,-52.17
505.6981,-53.58
505.7981,-55.74
505.8981,-55.27
505.9981,-54.24
506.0981,-53.86
506.1981,-54.9
506.2981,-54.62
506.3981,-54.52
506.4981,-54.43
506.5981,-55.27
506.6981,-55.56
506.7981,-55.18
506.8981,-55.74
506.9981,-56.21
507.0981,-55.46
507.1981,-53.96
507.2981,-54.24
507.3981,-55.93
507.4981,-56.12
507.5981,-54.43
507.6981,-53.11
507.7981,-52.83
507.8981,-52.54
507.9981,-52.92
508.0981,-52.26
508.1981,-52.36
508.2981,-53.02
508.3981,-52.64
508.4981,-52.07
508.5981,-52.92
508.6981,-53.11
508.7981,-53.86
508.8981,-54.43
508.9981,-53.77
509.0981,-53.77
509.1981,-53.86
509.2981,-54.99
509.3981,-55.37
509.4981,-55.46
509.5981,-56.78
509.6981,-55.74
509.7981,-54.62
509.8981,-55.46
509.9981,-55.65
510.0981,-54.8
510.1981,-54.14
510.2981,-55.18
510.3981,-55.09
510.4981,-53.67
510.5981,-53.86
510.6981,-54.33
510.7981,-54.62
510.8981,-54.8
510.9981,-53.2
511.0981,-54.52
511.1981,-54.52
511.2981,-54.14
511.3981,-55.37
511.4981,-54.43
511.5981,-53.86
511.6981,-53.58
511.7981,-53.11
511.8981,-53.77
511.9981,-54.71
512.0981,-53.58
512.1981,-53.58
512.2981,-54.43
512.3981,-56.4
512.4981,-55.74
512.5981,-56.12
512.6981,-57.06
512.7981,-55.74
512.8981,-54.8
512.9981,-53.58
513.0981,-54.71
513.1981,-53.58
513.2981,-53.2
513.3981,-53.3
513.4981,-53.02
513.5981,-53.67
513.6981,-53.86
513.7981,-55.37
513.8981,-56.03
513.9981,-55.18
514.0981,-54.05
514.1981,-54.52
514.2981,-54.52
514.3981,-54.62
514.4981,-54.43
514.5981,-54.33
514.6981,-53.58
514.7981,-53.58
514.8981,-52.92
514.9981,-54.43
515.0981,-55.56
515.1981,-53.77
515.2981,-54.99
515.3981,-55.27
515.4981,-54.05
515.5981,-54.8
515.6981,-54.33
515.7981,-56.03
515.8981,-53.86
515.9981,-54.33
516.0981,-54.71
516.1981,-52.92
516.2981,-52.83
516.3981,-53.67
516.4981,-52.92
516.5981,-52.64
516.6981,-53.49
516.7981,-53.77
516.8981,-53.3
516.9981,-52.36
517.0981,-52.54
517.1981,-52.73
517.2981,-53.39
517.3981,-53.3
517.4981,-53.02
517.5981,-54.8
517.6981,-55.46
517.7981,-54.24
517.8981,-54.24
517.9981,-54.33
518.0981,-54.05
518.1981,-54.14
518.2981,-53.39
518.3981,-53.49
518.4981,-54.33
518.5981,-55.09
518.6981,-54.99
518.7981,-55.27
518.8981,-54.9
518.9981,-55.37
519.0981,-54.71
519.1981,-56.21
519.2981,-55.27
519.3981,-53.02
519.4981,-53.2
519.5981,-53.86
519.6981,-53.02
519.7981,-53.67
519.8981,-53.58
519.9981,-53.86
520.0981,-54.14
520.1981,-54.05
520.2981,-53.96
520.3981,-54.05
520.4981,-53.77
520.5981,-53.77
520.6981,-52.92
520.7981,-53.77
520.8981,-54.33
520.9981,-54.24
521.0981,-53.39
521.1981,-53.11
521.2981,-52.64
521.3981,-51.51
521.4981,-52.64
521.5981,-52.83
521.6981,-53.3
521.7981,-52.64
521.8981,-52.54
521.9981,-52.36
522.0981,-52.83
522.1981,-53.77
522.2981,-54.9
522.3981,-54.33
522.4981,-53.86
522.5981,-53.58
522.6981,-54.62
522.7981,-54.43
522.8981,-54.43
522.9981,-53.86
523.0981,-54.62
523.1981,-54.33
523.2981,-54.33
523.3981,-55.56
523.4981,-54.71
523.5981,-57.16
523.6981,-55.74
523.7981,-54.24
523.8981,-55.37
523.9981,-55.18
524.0981,-54.43
524.1981,-53.11
524.2981,-52.73
524.3981,-52.92
524.4981,-52.54
524.5981,-51.6
524.6981,-51.32
524.7981,-50.66
524.8981,-52.45
524.9981,-51.79
525.0981,-51.89
525.1981,-53.11
525.2981,-53.58
525.3981,-54.99
525.4981,-52.64
525.5981,-52.45
525.6981,-52.36
525.7981,-53.86
525.8981,-56.03
525.9981,-55.84
526.0981,-54.24
526.1981,-53.49
526.2981,-54.99
526.3981,-54.8
526.4981,-54.8
526.5981,-54.33
526.6981,-55.65
526.7981,-55.93
526.8981,-56.97
526.9981,-56.21
527.0981,-54.24
527.1981,-54.43
527.2981,-53.96
527.3981,-55.65
527.4981,-55.27
527.5981,-54.62
527.6981,-54.33
527.7981,-53.02
527.8981,-52.45
527.9981,-52.54
528.0981,-53.86
528.1981,-53.67
528.2981,-53.11
528.3981,-52.36
528.4981,-52.07
528.5981,-53.39
528.6981,-53.96
528.7981,-53.02
528.8981,-53.77
528.9981,-55.46
529.0981,-55.56
529.1981,-55.09
529.2981,-56.31
529.3981,-55.74
529.4981,-55.37
529.5981,-55.37
529.6981,-54.24
529.7981,-55.09
529.8981,-54.99
529.9981,-55.84
530.0981,-55.93
530.1981,-55.84
530.2981,-55.65
530.3981,-55.65
530.4981,-55.93
530.5981,-54.99
530.6981,-55.18
530.7981,-56.21
530.8981,-54.8
530.9981,-54.71
531.0981,-53.49
531.1981,-53.67
531.2981,-54.33
531.3981,-53.96
531.4981,-55.18
531.5981,-54.52
531.6981,-52.64
531.7981,-53.3
531.8981,-54.43
531.9981,-54.43
532.0981,-53.86
532.1981,-54.62
532.2981,-55.27
532.3981,-55.46
532.4981,-56.31
532.5981,-54.62
532.6981,-53.86
532.7981,-52.73
532.8981,-52.92
532.9981,-53.96
533.0981,-55.09
533.1981,-54.62
533.2981,-54.14
533.3981,-52.83
533.4981,-53.11
533.5981,-54.05
533.6981,-53.58
533.7981,-54.05
533.8981,-54.43
533.9981,-56.31
534.0981,-56.12
534.1981,-55.09
534.2981,-54.43
534.3981,-54.24
534.4981,-55.18
534.5981,-55.37
534.6981,-55.84
534.7981,-55.84
534.8981,-55.93
534.9981,-54.8
535.0981,-54.8
535.1981,-54.9
535.2981,-54.52
535.3981,-53.67
535.4981,-53.77
535.5981,-55.18
535.6981,-54.8
535.7981,-54.52
535.8981,-55.18
535.9981,-53.77
536.0981,-51.7
536.1981,-51.6
536.2981,-51.6
536.3981,-52.36
536.4981,-53.3
536.5981,-53.39
536.6981,-53.3
536.7981,-52.92
536.8981,-52.64
536.9981,-53.49
537.0981,-54.24
537.1981,-53.86
537.2981,-53.39
537.3981,-54.24
537.4981,-54.62
537.5981,-53.77
537.6981,-54.24
537.7981,-53.77
537.8981,-54.62
537.9981,-55.09
538.0981,-55.37
538.1981,-54.33
538.2981,-55.18
538.3981,-55.84
538.4981,-54.62
538.5981,-54.8
538.6981,-55.09
538.7981,-55.27
538.8981,-54.52
538.9981,-52.92
539.0981,-53.11
539.1981,-54.05
539.2981,-53.86
539.3981,-54.33
539.4981,-53.86
539.5981,-53.11
539.6981,-53.49
539.7981,-53.86
539.8981,-53.96
539.9981,-53.02
540.0981,-54.43
540.1981,-54.52
540.2981,-53.39
540.3981,-53.77
540.4981,-53.11
540.5981,-54.24
540.6981,-54.33
540.7981,-54.33
540.8981,-54.14
540.9981,-54.62
541.0981,-54.43
541.1981,-53.67
541.2981,-54.05
541.3981,-53.86
541.4981,-54.24
541.5981,-54.24
541.6981,-53.11
541.7981,-52.83
541.8981,-53.2
541.9981,-53.86
542.0981,-54.05
542.1981,-54.62
542.2981,-54.62
542.3981,-53.3
542.4981,-53.11
542.5981,-54.24
542.6981,-54.33
542.7981,-54.14
542.8981,-53.67
542.9981,-53.67
543.0981,-54.8
543.1981,-54.14
543.2981,-54.05
543.3981,-54.71
543.4981,-53.3
543.5981,-53.67
543.6981,-54.8
543.7981,-55.09
543.8981,-56.03
543.9981,-55.18
544.0981,-54.99
544.1981,-53.39
544.2981,-53.02
544.3981,-54.14
544.4981,-54.33
544.5981,-53.58
544.6981,-53.2
544.7981,-53.3
544.8981,-52.73
544.9981,-53.02
545.0981,-55.74
545.1981,-53.86
545.2981,-53.49
545.3981,-53.11
545.4981,-53.49
545.5981,-55.09
545.6981,-56.12
545.7981,-55.18
545.8981,-53.49
545.9981,-54.33
546.0981,-55.18
546.1981,-53.67
546.2981,-54.33
546.3981,-52.73
546.4981,-53.96
546.5981,-54.52
546.6981,-56.21
546.7981,-56.4
546.8981,-54.9
546.9981,-55.56
547.0981,-55.27
547.1981,-55.74
547.2981,-54.52
547.3981,-54.33
547.4981,-55.46
547.5981,-55.18
547.6981,-54.52
547.7981,-51.89
547.8981,-51.7
547.9981,-53.3
548.0981,-53.86
548.1981,-53.2
548.2981,-53.39
548.3981,-53.49
548.4981,-54.43
548.5981,-54.71
548.6981,-54.62
548.7981,-54.05
548.8981,-53.86
548.9981,-55.93
549.0981,-55.27
549.1981,-54.71
549.2981,-55.27
549.3981,-54.24
549.4981,-54.8
549.5981,-55.74
549.6981,-54.9
549.7981,-55.18
549.8981,-55.56
549.9981,-55.27
550.0981,-53.86
550.1981,-53.86
550.2981,-53.58
550.3981,-54.14
550.4981,-54.9
550.5981,-55.09
550.6981,-55.27
550.7981,-55.27
550.8981,-54.62
550.9981,-54.62
551.0981,-53.67
551.1981,-53.77
551.2981,-54.24
551.3981,-54.05
551.4981,-55.18
551.5981,-53.77
551.6981,-53.96
551.7981,-54.9
551.8981,-55.37
551.9981,-55.84
552.0981,-55.93
552.1981,-55.37
552.2981,-55.84
552.3981,-54.99
552.4981,-53.67
552.5981,-53.2
552.6981,-53.11
552.7981,-54.24
552.8981,-53.2
552.9981,-53.58
553.0981,-53.02
553.1981,-53.58
553.2981,-54.71
553.3981,-53.77
553.4981,-52.83
553.5981,-54.24
553.6981,-53.39
553.7981,-53.39
553.8981,-54.24
553.9981,-55.09
554.0981,-54.43
554.1981,-54.8
554.2981,-54.99
554.3981,-54.62
554.4981,-54.8
554.5981,-54.99
554.6981,-54.43
554.7981,-53.49
554.8981,-54.33
554.9981,-54.9
555.0981,-55.46
555.1981,-56.59
555.2981,-56.31
555.3981,-55.27
555.4981,-54.8
555.5981,-54.9
555.6981,-53.77
555.7981,-52.73
555.8981,-54.43
555.9981,-55.18
556.0981,-54.33
556.1981,-52.73
556.2981,-52.26
556.3981,-52.36
556.4981,-52.83
556.5981,-53.02
556.6981,-52.83
556.7981,-53.67
556.8981,-54.43
556.9981,-53.3
557.0981,-54.9
557.1981,-55.18
557.2981,-54.71
557.3981,-54.52
557.4981,-56.21
557.5981,-56.97
557.6981,-54.99
557.7981,-53.3
557.8981,-54.43
557.9981,-53.67
558.0981,-54.05
558.1981,-54.71
558.2981,-53.39
558.3981,-54.62
558.4981,-54.33
558.5981,-55.46
558.6981,-54.9
558.7981,-56.12
558.8981,-53.39
558.9981,-52.73
559.0981,-53.39
559.1981,-53.02
559.2981,-52.36
559.3981,-53.02
559.4981,-54.8
559.5981,-54.62
559.6981,-53.86
559.7981,-53.67
559.8981,-53.67
559.9981,-52.54
560.0981,-51.89
560.1981,-53.96
560.2981,-53.3
560.3981,-52.92
560.4981,-54.14
560.5981,-53.49
560.6981,-54.05
560.7981,-53.96
560.8981,-54.62
560.9981,-53.77
561.0981,-54.14
561.1981,-54.9
561.2981,-55.74
561.3981,-53.67
561.4981,-53.02
561.5981,-53.77
561.6981,-55.93
561.7981,-55.37
561.8981,-54.52
561.9981,-54.71
562.0981,-54.8
562.1981,-53.77
562.2981,-54.43
562.3981,-53.67
562.4981,-52.36
562.5981,-52.54
562.6981,-53.39
562.7981,-54.52
562.8981,-54.14
562.9981,-53.39
563.0981,-52.26
563.1981,-51.13
563.2981,-52.45
563.3981,-54.8
563.4981,-54.71
563.5981,-54.8
563.6981,-54.24
563.7981,-52.92
563.8981,-52.83
563.9981,-54.05
564.0981,-54.05
564.1981,-54.05
564.2981,-53.58
564.3981,-53.2
564.4981,-54.62
564.5981,-51.89
564.6981,-52.36
564.7981,-52.92
564.8981,-52.45
564.9981,-53.86
565.0981,-54.33
565.1981,-52.73
565.2981,-54.71
565.3981,-54.43
565.4981,-53.96
565.5981,-54.99
565.6981,-55.27
565.7981,-54.71
565.8981,-54.71
565.9981,-54.99
566.0981,-54.05
566.1981,-54.43
566.2981,-53.96
566.3981,-54.62
566.4981,-54.43
566.5981,-53.39
566.6981,-53.2
566.7981,-53.96
566.8981,-53.86
566.9981,-53.96
567.0981,-54.24
567.1981,-54.71
567.2981,-54.33
567.3981,-55.56
567.4981,-53.67
567.5981,-52.73
567.6981,-53.39
567.7981,-53.49
567.8981,-53.86
567.9981,-54.9
568.0981,-54.71
568.1981,-55.09
568.2981,-54.14
568.3981,-53.67
568.4981,-53.3
568.5981,-53.11
568.6981,-53.77
568.7981,-53.77
568.8981,-53.96
568.9981,-54.05
569.0981,-55.18
569.1981,-56.4
569.2981,-54.8
569.3981,-54.24
569.4981,-54.24
569.5981,-53.11
569.6981,-54.05
569.7981,-53.77
569.8981,-53.02
569.9981,-54.52
570.0981,-54.33
570.1981,-55.09
570.2981,-54.43
570.3981,-54.43
570.4981,-55.27
570.5981,-55.09
570.6981,-54.43
570.7981,-53.96
570.8981,-53.58
570.9981,-53.77
571.0981,-53.96
571.1981,-55.37
571.2981,-55.46
571.3981,-54.14
571.4981,-53.96
571.5981,-55.37
571.6981,-55.74
571.7981,-55.46
571.8981,-54.99
571.9981,-55.18
572.0981,-54.8
572.1981,-54.33
572.2981,-54.43
572.3981,-53.67
572.4981,-53.67
572.5981,-53.67
572.6981,-52.92
572.7981,-53.02
572.8981,-53.96
572.9981,-52.92
573.0981,-53.02
573.1981,-53.77
573.2981,-54.24
573.3981,-53.2
573.4981,-52.54
573.5981,-55.84
573.6981,-55.74
573.7981,-54.52
573.8981,-54.24
573.9981,-55.46
574.0981,-55.27
574.1981,-55.27
574.2981,-55.46
574.3981,-56.21
574.4981,-55.18
574.5981,-54.9
574.6981,-54.99
574.7981,-54.8
574.8981,-55.18
574.9981,-54.71
575.0981,-54.71
575.1981,-53.77
575.2981,-54.8
575.3981,-53.96
575.4981,-53.39
575.5981,-52.26
575.6981,-52.73
575.7981,-53.11
575.8981,-52.17
575.9981,-52.73
576.0981,-54.43
576.1981,-53.58
576.2981,-52.17
576.3981,-53.2
576.4981,-54.24
576.5981,-53.96
576.6981,-53.58
576.7981,-51.79
576.8981,-51.51
576.9981,-53.3
577.0981,-55.18
577.1981,-54.52
577.2981,-55.18
577.3981,-54.71
577.4981,-54.24
577.5981,-54.14
577.6981,-53.39
577.7981,-53.11
577.8981,-53.11
577.9981,-53.2
578.0981,-53.86
578.1981,-54.33
578.2981,-54.62
578.3981,-54.9
578.4981,-53.96
578.5981,-54.24
578.6981,-53.39
578.7981,-52.26
578.8981,-52.26
578.9981,-51.7
579.0981,-51.98
579.1981,-52.54
579.2981,-51.98
579.3981,-51.42
579.4981,-52.64
579.5981,-52.83
579.6981,-52.07
579.7981,-52.64
579.8981,-52.54
579.9981,-51.98
580.0981,-52.45
580.1981,-53.96
580.2981,-54.9
580.3981,-54.8
580.4981,-54.99
580.5981,-53.86
580.6981,-54.99
580.7981,-53.77
580.8981,-52.64
580.9981,-53.39
581.0981,-53.2
581.1981,-52.83
581.2981,-52.92
581.3981,-53.96
581.4981,-53.02
581.5981,-52.73
581.6981,-52.26
581.7981,-52.17
581.8981,-52.92
581.9981,-53.11
582.0981,-53.2
582.1981,-53.67
582.2981,-53.3
582.3981,-52.92
582.4981,-52.64
582.5981,-51.7
582.6981,-52.45
582.7981,-52.45
582.8981,-52.26
582.9981,-51.79
583.0981,-52.07
583.1981,-53.49
583.2981,-53.67
583.3981,-53.3
583.4981,-54.33
583.5981,-53.58
583.6981,-51.7
583.7981,-52.07
583.8981,-53.11
583.9981,-52.17
584.0981,-52.26
584.1981,-53.2
584.2981,-53.86
584.3981,-52.36
584.4981,-51.42
584.5981,-52.64
584.6981,-53.77
584.7981,-53.3
584.8981,-52.92
584.9981,-54.05
585.0981,-54.71
585.1981,-52.92
585.2981,-53.58
585.3981,-54.43
585.4981,-54.33
585.5981,-55.46
585.6981,-55.56
585.7981,-54.24
585.8981,-53.02
585.9981,-53.77
586.0981,-54.43
586.1981,-54.24
586.2981,-53.58
586.3981,-53.3
586.4981,-53.67
586.5981,-53.58
586.6981,-52.83
586.7981,-53.49
586.8981,-54.71
586.9981,-55.18
587.0981,-54.71
587.1981,-54.24
587.2981,-53.2
587.3981,-53.67
587.4981,-54.05
587.5981,-53.11
587.6981,-53.67
587.7981,-55.56
587.8981,-54.14
587.9981,-53.3
588.0981,-53.67
588.1981,-52.54
588.2981,-52.36
588.3981,-54.24
588.4981,-53.86
588.5981,-54.24
588.6981,-54.52
588.7981,-53.96
588.8981,-53.96
588.9981,-54.43
589.0981,-54.99
589.1981,-54.99
589.2981,-55.84
589.3981,-54.05
589.4981,-54.52
589.5981,-54.14
589.6981,-53.86
589.7981,-54.33
589.8981,-54.8
589.9981,-53.02
590.0981,-53.02
590.1981,-53.2
590.2981,-54.24
590.3981,-53.96
590.4981,-52.64
590.5981,-52.26
590.6981,-53.02
590.7981,-52.45
590.8981,-52.36
590.9981,-52.45
591.0981,-53.58
591.1981,-53.67
591.2981,-54.62
591.3981,-54.24
591.4981,-54.9
591.5981,-53.96
591.6981,-53.86
591.7981,-54.62
591.8981,-53.96
591.9981,-52.92
592.0981,-54.14
592.1981,-55.27
592.2981,-55.18
592.3981,-53.96
592.4981,-52.64
592.5981,-52.83
592.6981,-51.98
592.7981,-51.32
592.8981,-51.23
592.9981,-51.32
593.0981,-50.76
593.1981,-51.51
593.2981,-52.64
593.3981,-53.3
593.4981,-53.67
593.5981,-53.67
593.6981,-54.43
593.7981,-54.8
593.8981,-54.52
593.9981,-53.67
594.0981,-53.96
594.1981,-52.92
594.2981,-53.39
594.3981,-53.77
594.4981,-53.58
594.5981,-55.65
594.6981,-55.65
594.7981,-54.14
594.8981,-54.9
594.9981,-55.37
595.0981,-54.52
595.1981,-54.24
595.2981,-53.67
595.3981,-52.54
595.4981,-51.7
595.5981,-52.45
595.6981,-52.26
595.7981,-52.26
595.8981,-52.36
595.9981,-51.7
596.0981,-51.98
596.1981,-51.42
596.2981,-50.38
596.3981,-50.66
596.4981,-50.29
596.5981,-51.7
596.6981,-54.14
596.7981,-55.18
596.8981,-54.71
596.9981,-54.05
597.0981,-54.99
597.1981,-55.27
597.2981,-54.33
597.3981,-53.96
597.4981,-54.43
597.5981,-54.33
597.6981,-53.77
597.7981,-54.9
597.8981,-54.52
597.9981,-53.67
598.0981,-54.43
598.1981,-55.93
598.2981,-54.33
598.3981,-53.77
598.4981,-53.58
598.5981,-52.83
598.6981,-51.42
598.7981,-52.36
598.8981,-51.42
598.9981,-51.89
599.0981,-51.23
599.1981,-50.29
599.2981,-51.42
599.3981,-52.07
599.4981,-50.94
599.5981,-50.76
599.6981,-51.51
599.7981,-52.73
599.8981,-53.11
599.9981,-52.26
600.0981,-52.73
600.1981,-53.2
600.2981,-54.14
600.3981,-54.33
600.4981,-54.14
600.5981,-55.09
600.6981,-55.37
600.7981,-55.09
600.8981,-53.3
600.9981,-53.58
601.0981,-53.58
601.1981,-53.58
601.2981,-54.71
601.3981,-55.65
601.4981,-53.11
601.5981,-52.07
601.6981,-52.54
601.7981,-53.49
601.8981,-53.58
601.9981,-52.17
602.0981,-52.54
602.1981,-52.54
602.2981,-52.83
602.3981,-51.89
602.4981,-51.79
602.5981,-52.92
602.6981,-51.7
602.7981,-51.7
602.8981,-52.64
602.9981,-51.98
603.0981,-52.83
603.1981,-53.39
603.2981,-54.05
603.3981,-55.74
603.4981,-54.62
603.5981,-54.43
603.6981,-54.99
603.7981,-54.9
603.8981,-54.43
603.9981,-54.14
604.0981,-54.05
604.1981,-51.7
604.2981,-53.02
604.3981,-53.77
604.4981,-52.54
604.5981,-54.14
604.6981,-54.99
604.7981,-54.71
604.8981,-54.71
604.9981,-54.62
605.0981,-55.46
605.1981,-55.18
605.2981,-55.27
605.3981,-53.3
605.4981,-53.49
605.5981,-53.96
605.6981,-54.43
605.7981,-56.5
605.8981,-54.9
605.9981,-53.39
606.0981,-54.33
606.1981,-54.33
606.2981,-54.71
606.3981,-55.09
606.4981,-55.56
606.5981,-54.9
606.6981,-54.71
606.7981,-53.39
606.8981,-52.26
606.9981,-54.71
607.0981,-53.77
607.1981,-54.14
607.2981,-54.9
607.3981,-53.58
607.4981,-53.11
607.5981,-51.89
607.6981,-51.98
607.7981,-52.64
607.8981,-53.86
607.9981,-55.18
608.0981,-55.27
608.1981,-54.24
608.2981,-54.52
608.3981,-55.37
608.4981,-54.52
608.5981,-54.8
608.6981,-55.65
608.7981,-54.43
608.8981,-52.45
608.9981,-51.89
609.0981,-51.6
609.1981,-53.49
609.2981,-53.39
609.3981,-53.86
609.4981,-54.05
609.5981,-55.27
609.6981,-55.27
609.7981,-53.77
609.8981,-53.58
609.9981,-53.49
610.0981,-53.11
610.1981,-53.86
610.2981,-54.43
610.3981,-55.18
610.4981,-54.43
610.5981,-53.49
610.6981,-52.45
610.7981,-52.54
610.8981,-53.2
610.9981,-54.43
611.0981,-54.05
611.1981,-52.92
611.2981,-53.39
611.3981,-53.67
611.4981,-53.49
611.5981,-54.52
611.6981,-53.67
611.7981,-53.49
611.8981,-53.77
611.9981,-51.89
612.0981,-51.79
612.1981,-52.36
612.2981,-53.11
612.3981,-51.89
612.4981,-52.73
612.5981,-52.83
612.6981,-52.64
612.7981,-51.89
612.8981,-51.51
612.9981,-51.32
613.0981,-52.54
613.1981,-52.73
613.2981,-53.02
613.3981,-53.58
613.4981,-54.9
613.5981,-55.74
613.6981,-54.43
613.7981,-54.24
613.8981,-54.43
613.9981,-53.96
614.0981,-53.96
614.1981,-53.86
614.2981,-53.67
614.3981,-53.96
614.4981,-54.24
614.5981,-54.71
614.6981,-55.56
614.7981,-55.27
614.8981,-54.99
614.9981,-52.83
615.0981,-52.92
615.1981,-52.36
615.2981,-50.94
615.3981,-51.04
615.4981,-51.13
615.5981,-50.85
615.6981,-51.04
615.7981,-50.76
615.8981,-51.42
615.9981,-51.79
616.0981,-50.38
616.1981,-50.0
616.2981,-51.42
616.3981,-52.73
616.4981,-53.39
616.5981,-52.64
616.6981,-54.52
616.7981,-54.33
616.8981,-54.14
616.9981,-54.62
617.0981,-55.37
617.1981,-55.18
617.2981,-55.56
617.3981,-54.8
617.4981,-53.86
617.5981,-53.49
617.6981,-53.67
617.7981,-55.09
617.8981,-54.52
617.9981,-55.37
618.0981,-53.96
618.1981,-52.26
618.2981,-52.92
618.3981,-53.58
618.4981,-51.42
618.5981,-50.94
618.6981,-50.29
618.7981,-51.98
618.8981,-50.66
618.9981,-50.66
619.0981,-50.76
619.1981,-50.66
619.2981,-50.47
619.3981,-50.19
619.4981,-51.04
619.5981,-52.07
619.6981,-51.7
619.7981,-53.02
619.8981,-54.33
619.9981,-54.14
620.0980999999999,-55.46
620.1981000000001,-55.27
620.2981,-55.56
620.3981,-54.71
620.4981,-54.62
620.5980999999999,-53.49
620.6981000000001,-53.67
620.7981,-54.43
620.8981,-54.9
620.9981,-54.24
621.0980999999999,-55.46
621.1981000000001,-54.33
621.2981,-52.45
621.3981,-52.73
621.4981,-53.49
621.5980999999999,-52.26
621.6981000000001,-52.54
621.7981,-51.98
621.8981,-51.6
621.9981,-51.6
622.0980999999999,-51.7
622.1981000000001,-50.76
622.2981,-50.29
622.3981,-50.57
622.4981,-51.42
622.5980999999999,-53.3
622.6981000000001,-53.2
622.7981,-51.79
622.8981,-51.89
622.9981,-53.11
623.0980999999999,-53.2
623.1981000000001,-54.14
623.2981,-54.24
623.3981,-55.56
623.4981,-54.24
623.5980999999999,-54.43
623.6981000000001,-55.65
623.7981,-54.14
623.8981,-53.39
623.9981,-53.96
624.0980999999999,-53.49
624.1981000000001,-51.7
624.2981,-51.51
624.3981,-53.3
624.4981,-53.49
624.5980999999999,-53.49
624.6981000000001,-53.11
624.7981,-52.83
624.8981,-52.45
624.9981,-52.45
625.0980999999999,-53.2
625.1981000000001,-55.27
625.2981,-52.83
625.3981,-51.89
625.4981,-52.36
625.5980999999999,-52.36
625.6981000000001,-52.54
625.7981,-53.02
625.8981,-53.49
625.9981,-55.09
626.0980999999999,-54.9
626.1981000000001,-54.9
626.2981,-54.33
626.3981,-54.8
626.4981,-53.86
626.5980999999999,-53.3
626.6981000000001,-53.58
626.7981,-53.39
626.8981,-53.11
626.9981,-52.54
627.0980999999999,-52.64
627.1981000000001,-52.64
627.2981,-52.45
627.3981,-51.89
627.4981,-51.89
627.5980999999999,-53.02
627.6981000000001,-53.49
627.7981,-53.77
627.8981,-57.34
627.9981,-57.25
628.0980999999999,-54.52
628.1981000000001,-53.86
628.2981,-53.58
628.3981,-53.67
628.4981,-53.49
628.5980999999999,-53.02
628.6981000000001,-51.42
628.7981,-51.89
628.8981,-53.67
628.9981,-54.33
629.0980999999999,-54.8
629.1981000000001,-54.14
629.2981,-52.64
629.3981,-52.45
629.4981,-52.45
629.5980999999999,-53.39
629.6981000000001,-52.45
629.7981,-53.58
629.8981,-54.24
629.9981,-53.77
630.0980999999999,-52.73
630.1981000000001,-52.64
630.2981,-52.54
630.3981,-50.85
630.4981,-52.17
630.5980999999999,-55.37
630.6981000000001,-53.49
630.7981,-51.98
630.8981,-52.64
630.9981,-55.18
631.0980999999999,-55.84
631.1981000000001,-54.52
631.2981,-54.9
631.3981,-55.37
631.4981,-54.24
631.5980999999999,-53.86
631.6981000000001,-52.45
631.7981,-51.79
631.8981,-51.7
631.9981,-52.83
632.0980999999999,-52.45
632.1981000000001,-50.29
632.2981,-49.34
632.3981,-51.23
632.4981,-51.42
632.5980999999999,-50.76
632.6981000000001,-51.32
632.7981,-51.13
632.8981,-51.23
632.9981,-52.92
633.0980999999999,-51.98
633.1981000000001,-53.49
633.2981,-53.02
633.3981,-52.83
633.4981,-53.86
633.5980999999999,-52.73
633.6981000000001,-53.96
633.7981,-54.99
633.8981,-54.05
633.9981,-53.39
634.0980999999999,-53.3
634.1981000000001,-53.96
634.2981,-55.56
634.3981,-55.56
634.4981,-55.09
634.5980999999999,-54.71
634.6981000000001,-52.26
634.7981,-51.04
634.8981,-50.57
634.9981,-49.82
635.0980999999999,-50.47
635.1981000000001,-51.42
635.2981,-51.42
635.3981,-52.26
635.4981,-51.04
635.5980999999999,-49.53
635.6981000000001,-49.25
635.7981,-51.04
635.8981,-51.32
635.9981,-50.47
636.0980999999999,-49.91
636.1981000000001,-50.29
636.2981,-51.51
636.3981,-51.32
636.4981,-52.45
636.5980999999999,-54.05
636.6981000000001,-54.71
636.7981,-54.24
636.8981,-54.05
636.9981,-53.96
637.0980999999999,-54.33
637.1981000000001,-54.05
637.2981,-54.99
637.3981,-55.09
637.4981,-54.24
637.5980999999999,-54.9
637.6981000000001,-55.65
637.7981,-53.77
637.8981,-53.96
637.9981,-52.54
638.0980999999999,-51.7
638.1981000000001,-52.45
638.2981,-51.7
638.3981,-50.94
638.4981,-50.66
638.5980999999999,-51.23
638.6981000000001,-50.0
638.7981,-49.91
638.8981,-49.53
638.9981,-49.91
639.0980999999999,-49.53
639.1981000000001,-50.0
639.2981,-50.66
639.3981,-51.6
639.4981,-52.45
639.5980999999999,-52.64
639.6981000000001,-53.3
639.7981,-53.96
639.8981,-54.14
639.9981,-53.39
640.0980999999999,-54.62
640.1981000000001,-54.71
640.2981,-55.56
640.3981,-54.43
640.4981,-53.77
640.5980999999999,-53.11
640.6981000000001,-51.79
640.7981,-53.2
640.8981,-54.71
640.9981,-54.52
641.0980999999999,-53.11
641.1981000000001,-52.07
641.2981,-51.04
641.3981,-51.13
641.4981,-51.32
641.5980999999999,-52.07
641.6981000000001,-51.89
641.7981,-52.45
641.8981,-53.11
641.9981,-51.6
642.0980999999999,-50.76
642.1981000000001,-51.79
642.2981,-51.32
642.3981,-50.19
642.4981,-50.0
642.5980999999999,-51.13
642.6981000000001,-52.64
642.7981,-54.71
642.8981,-53.77
642.9981,-54.05
643.0980999999999,-54.14
643.1981000000001,-54.05
643.2981,-54.71
643.3981,-54.52
643.4981,-53.96
643.5980999999999,-53.11
643.6981000000001,-52.83
643.7981,-51.23
643.8981,-51.04
643.9981,-52.64
644.0980999999999,-53.86
644.1981000000001,-53.96
644.2981,-54.52
644.3981,-54.9
644.4981,-53.2
644.5980999999999,-53.86
644.6981000000001,-53.49
644.7981,-53.3
644.8981,-53.39
644.9981,-53.2
645.0980999999999,-53.02
645.1981000000001,-52.45
645.2981,-52.17
645.3981,-51.32
645.4981,-51.79
645.5980999999999,-51.79
645.6981000000001,-51.51
645.7981,-53.67
645.8981,-54.9
645.9981,-55.27
646.0980999999999,-54.14
646.1981000000001,-53.11
646.2981,-54.14
646.3981,-53.86
646.4981,-53.3
646.5980999999999,-52.36
646.6981000000001,-51.7
646.7981,-51.7
646.8981,-50.76
646.9981,-50.85
647.0980999999999,-51.7
647.1981000000001,-52.64
647.2981,-52.45
647.3981,-53.3
647.4981,-52.17
647.5980999999999,-53.2
647.6981000000001,-55.18
647.7981,-55.18
647.8981,-54.71
647.9981,-53.77
648.0980999999999,-54.05
648.1981000000001,-53.39
648.2981,-52.45
648.3981,-50.66
648.4981,-51.42
648.5980999999999,-52.36
648.6981000000001,-53.39
648.7981,-51.98
648.8981,-51.51
648.9981,-50.85
649.0980999999999,-51.51
649.1981000000001,-51.98
649.2981,-50.19
649.3981,-50.47
649.4981,-52.54
649.5980999999999,-53.11
649.6981000000001,-52.83
649.7981,-53.2
649.8981,-52.17
649.9981,-50.94
650.0980999999999,-50.94
650.1981000000001,-51.32
650.2981,-52.73
650.3981,-51.23
650.4981,-53.02
650.5980999999999,-54.43
650.6981000000001,-53.3
650.7981,-54.52
650.8981,-54.05
650.9981,-54.24
651.0980999999999,-55.37
651.1981000000001,-54.43
651.2981,-54.24
651.3981,-52.45
651.4981,-52.36
651.5980999999999,-52.92
651.6981000000001,-51.89
651.7981,-50.94
651.8981,-50.38
651.9981,-49.25
652.0980999999999,-50.19
652.1981000000001,-50.85
652.2981,-49.44
652.3981,-49.44
652.4981,-50.57
652.5980999999999,-51.51
652.6981000000001,-52.17
652.7981,-52.36
652.8981,-51.51
652.9981,-50.76
653.0980999999999,-51.6
653.1981000000001,-52.45
653.2981,-52.17
653.3981,-52.83
653.4981,-53.02
653.5980999999999,-52.26
653.6981000000001,-52.92
653.7981,-53.49
653.8981,-53.86
653.9981,-55.09
654.0980999999999,-55.27
654.1981000000001,-54.14
654.2981,-54.62
654.3981,-55.56
654.4981,-53.58
654.5980999999999,-52.07
654.6981000000001,-50.57
654.7981,-50.19
654.8981,-50.0
654.9981,-49.34
655.0980999999999,-49.34
655.1981000000001,-48.5
655.2981,-49.25
655.3981,-48.31
655.4981,-47.84
655.5980999999999,-48.78
655.6981000000001,-49.44
655.7981,-50.38
655.8981,-50.38
655.9981,-49.44
656.0980999999999,-51.98
656.1981000000001,-53.02
656.2981,-52.83
656.3981,-53.39
656.4981,-52.73
656.5980999999999,-53.67
656.6981000000001,-55.46
656.7981,-56.03
656.8981,-55.74
656.9981,-56.69
657.0980999999999,-55.93
657.1981000000001,-54.71
657.2981,-55.27
657.3981,-55.74
657.4981,-55.09
657.5980999999999,-53.11
657.6981000000001,-51.42
657.7981,-52.07
657.8981,-50.38
657.9981,-48.97
658.0980999999999,-50.57
658.1981000000001,-50.66
658.2981,-49.63
658.3981,-48.22
658.4981,-47.65
658.5980999999999,-48.97
658.6981000000001,-49.72
658.7981,-49.44
658.8981,-48.87
658.9981,-48.97
659.0980999999999,-50.94
659.1981000000001,-51.51
659.2981,-51.98
659.3981,-53.11
659.4981,-54.05
659.5980999999999,-54.43
659.6981000000001,-53.96
659.7981,-54.24
659.8981,-55.65
659.9981,-54.8
660.0980999999999,-52.92
660.1981000000001,-53.39
660.2981,-53.3
660.3981,-51.98
660.4981,-52.26
660.5980999999999,-53.11
660.6981000000001,-52.17
660.7981,-53.67
660.8981,-53.58
660.9981,-53.3
661.0980999999999,-52.45
661.1981000000001,-52.17
661.2981,-51.79
661.3981,-51.98
661.4981,-51.04
661.5980999999999,-52.26
661.6981000000001,-51.32
661.7981,-50.76
661.8981,-50.76
661.9981,-50.47
662.0980999999999,-50.47
662.1981000000001,-50.47
662.2981,-51.79
662.3981,-53.86
662.4981,-54.43
662.5980999999999,-54.71
662.6981000000001,-54.62
662.7981,-54.9
662.8981,-53.3
662.9981,-53.02
663.0980999999999,-54.8
663.1981000000001,-53.39
663.2981,-53.58
663.3981,-53.58
663.4981,-52.26
663.5980999999999,-53.3
663.6981000000001,-53.58
663.7981,-52.54
663.8981,-53.11
663.9981,-53.39
664.0980999999999,-53.86
664.1981000000001,-52.64
664.2981,-52.26
664.3981,-52.45
664.4981,-52.73
664.5980999999999,-54.24
664.6981000000001,-53.3
664.7981,-51.7
664.8981,-52.26
664.9981,-51.6
665.0980999999999,-50.47
665.1981000000001,-50.1
665.2981,-50.76
665.3981,-52.92
665.4981,-52.26
665.5980999999999,-51.6
665.6981000000001,-50.47
665.7981,-50.47
665.8981,-51.23
665.9981,-51.98
666.0980999999999,-52.54
666.1981000000001,-51.79
666.2981,-50.85
666.3981,-50.1
666.4981,-50.94
666.5980999999999,-51.32
666.6981000000001,-51.98
666.7981,-50.76
666.8981,-51.13
666.9981,-53.3
667.0980999999999,-52.45
667.1981000000001,-53.49
667.2981,-53.39
667.3981,-53.86
667.4981,-54.43
667.5980999999999,-55.46
667.6981000000001,-54.71
667.7981,-52.83
667.8981,-52.07
667.9981,-52.92
668.0980999999999,-53.11
668.1981000000001,-51.51
668.2981,-51.79
668.3981,-51.7
668.4981,-50.57
668.5980999999999,-51.32
668.6981000000001,-50.1
668.7981,-49.53
668.8981,-49.34
668.9981,-49.34
669.0980999999999,-50.57
669.1981000000001,-50.19
669.2981,-50.66
669.3981,-52.26
669.4981,-51.13
669.5980999999999,-49.06
669.6981000000001,-49.25
669.7981,-50.1
669.8981,-50.29
669.9981,-51.04
670.0980999999999,-52.83
670.1981000000001,-52.64
670.2981,-51.7
670.3981,-52.07
670.4981,-54.14
670.5980999999999,-54.52
670.6981000000001,-53.77
670.7981,-54.43
670.8981,-53.58
670.9981,-53.3
671.0980999999999,-53.11
671.1981000000001,-52.54
671.2981,-51.89
671.3981,-51.7
671.4981,-49.82
671.5980999999999,-50.76
671.6981000000001,-48.31
671.7981,-48.69
671.8981,-48.4
671.9981,-48.5
672.0980999999999,-48.59
672.1981000000001,-49.16
672.2981,-49.06
672.3981,-49.44
672.4981,-50.19
672.5980999999999,-50.76
672.6981000000001,-51.32
672.7981,-51.32
672.8981,-53.02
672.9981,-52.73
673.0980999999999,-52.83
673.1981000000001,-52.64
673.2981,-52.73
673.3981,-52.54
673.4981,-53.77
673.5980999999999,-53.3
673.6981000000001,-55.46
673.7981,-56.21
673.8981,-53.3
673.9981,-54.43
674.0980999999999,-53.77
674.1981000000001,-52.73
674.2981,-51.23
674.3981,-51.42
674.4981,-50.29
674.5980999999999,-49.44
674.6981000000001,-49.44
674.7981,-49.72
674.8981,-49.16
674.9981,-50.0
675.0980999999999,-49.16
675.1981000000001,-48.69
675.2981,-48.4
675.3981,-48.12
675.4981,-47.74
675.5980999999999,-48.78
675.6981000000001,-49.44
675.7981,-50.29
675.8981,-50.94
675.9981,-51.23
676.0980999999999,-52.92
676.1981000000001,-53.2
676.2981,-52.54
676.3981,-52.83
676.4981,-53.77
676.5980999999999,-54.43
676.6981000000001,-53.49
676.7981,-52.36
676.8981,-54.05
676.9981,-54.33
677.0980999999999,-53.39
677.1981000000001,-52.83
677.2981,-53.11
677.3981,-53.86
677.4981,-52.73
677.5980999999999,-50.29
677.6981000000001,-50.19
677.7981,-49.72
677.8981,-48.69
677.9981,-48.22
678.0980999999999,-48.97
678.1981000000001,-49.44
678.2981,-49.06
678.3981,-48.59
678.4981,-49.16
678.5980999999999,-47.93
678.6981000000001,-48.59
678.7981,-48.97
678.8981,-52.17
678.9981,-53.2
679.0980999999999,-52.64
679.1981000000001,-52.73
679.2981,-53.11
679.3981,-53.67
679.4981,-54.33
679.5980999999999,-56.31
679.6981000000001,-55.18
679.7981,-53.49
679.8981,-53.39
679.9981,-54.52
680.0980999999999,-54.62
680.1981000000001,-53.67
680.2981,-54.99
680.3981,-53.86
680.4981,-54.43
680.5980999999999,-53.96
680.6981000000001,-52.73
680.7981,-51.89
680.8981,-51.89
680.9981,-50.57
681.0980999999999,-51.04
681.1981000000001,-51.23
681.2981,-50.85
681.3981,-50.85
681.4981,-49.91
681.5980999999999,-48.78
681.6981000000001,-49.82
681.7981,-49.25
681.8981,-49.82
681.9981,-51.51
682.0980999999999,-52.07
682.1981000000001,-52.36
682.2981,-51.04
682.3981,-52.07
682.4981,-53.77
682.5980999999999,-52.92
682.6981000000001,-52.45
682.7981,-53.02
682.8981,-51.79
682.9981,-51.79
