Frequency(MHz),Power(dBmV/100kHz)_20260203_093443
107.8981,-82.41
107.9981,-52.19
108.0981,-51.25
108.1981,-50.41
108.2981,-51.44
108.3981,-53.23
108.4981,-52.57
108.5981,-50.88
108.6981,-51.63
108.7981,-51.91
108.8981,-51.82
108.9981,-50.12
109.0981,-50.31
109.1981,-50.88
109.2981,-50.69
109.3981,-51.25
109.4981,-51.25
109.5981,-51.07
109.6981,-50.22
109.7981,-51.44
109.8981,-52.1
109.9981,-52.67
110.0981,-51.25
110.1981,-50.88
110.2981,-52.76
110.3981,-52.67
110.4981,-50.97
110.5981,-50.88
110.6981,-52.01
110.7981,-51.07
110.8981,-51.25
110.9981,-52.38
111.0981,-52.67
111.1981,-52.01
111.2981,-52.01
111.3981,-50.5
111.4981,-50.41
111.5981,-50.59
111.6981,-50.5
111.7981,-51.07
111.8981,-51.16
111.9981,-50.78
112.0981,-50.78
112.1981,-49.94
112.2981,-50.12
112.3981,-51.16
112.4981,-50.5
112.5981,-49.75
112.6981,-50.97
112.7981,-51.82
112.8981,-51.72
112.9981,-50.31
113.0981,-50.69
113.1981,-51.07
113.2981,-51.82
113.3981,-53.14
113.4981,-51.63
113.5981,-51.91
113.6981,-51.72
113.7981,-51.82
113.8981,-50.88
113.9981,-51.16
114.0981,-51.54
114.1981,-50.5
114.2981,-51.07
114.3981,-51.63
114.4981,-51.44
114.5981,-50.78
114.6981,-50.97
114.7981,-50.78
114.8981,-50.12
114.9981,-50.31
115.0981,-52.01
115.1981,-51.07
115.2981,-50.41
115.3981,-51.72
115.4981,-49.65
115.5981,-50.12
115.6981,-51.72
115.7981,-52.01
115.8981,-51.25
115.9981,-51.54
116.0981,-52.76
116.1981,-50.22
116.2981,-49.47
116.3981,-50.5
116.4981,-50.69
116.5981,-50.12
116.6981,-50.5
116.7981,-50.03
116.8981,-50.97
116.9981,-50.12
117.0981,-50.69
117.1981,-53.04
117.2981,-51.63
117.3981,-51.25
117.4981,-51.16
117.5981,-51.44
117.6981,-51.82
117.7981,-51.25
117.8981,-52.76
117.9981,-52.76
118.0981,-50.78
118.1981,-50.69
118.2981,-50.59
118.3981,-50.78
118.4981,-52.29
118.5981,-51.82
118.6981,-51.07
118.7981,-51.54
118.8981,-50.69
118.9981,-49.28
119.0981,-50.12
119.1981,-50.59
119.2981,-50.97
119.3981,-51.54
119.4981,-51.54
119.5981,-50.97
119.6981,-51.35
119.7981,-49.75
119.8981,-49.56
119.9981,-51.07
120.0981,-51.91
120.1981,-51.44
120.2981,-50.97
120.3981,-50.31
120.4981,-49.94
120.5981,-50.03
120.6981,-51.54
120.7981,-52.85
120.8981,-53.04
120.9981,-51.82
121.0981,-51.82
121.1981,-51.54
121.2981,-52.29
121.3981,-52.95
121.4981,-52.95
121.5981,-51.63
121.6981,-52.29
121.7981,-51.63
121.8981,-52.19
121.9981,-52.48
122.0981,-52.57
122.1981,-50.88
122.2981,-49.94
122.3981,-50.69
122.4981,-52.01
122.5981,-51.82
122.6981,-51.72
122.7981,-50.69
122.8981,-52.01
122.9981,-52.29
123.0981,-51.72
123.1981,-51.07
123.2981,-51.54
123.3981,-50.69
123.4981,-49.65
123.5981,-49.75
123.6981,-52.1
123.7981,-52.29
123.8981,-51.54
123.9981,-51.16
124.0981,-51.25
124.1981,-53.98
124.2981,-53.32
124.3981,-51.82
124.4981,-50.97
124.5981,-51.63
124.6981,-51.82
124.7981,-52.19
124.8981,-51.63
124.9981,-51.07
125.0981,-51.82
125.1981,-52.01
125.2981,-51.25
125.3981,-50.69
125.4981,-50.97
125.5981,-51.16
125.6981,-50.5
125.7981,-51.16
125.8981,-50.88
125.9981,-50.69
126.0981,-50.59
126.1981,-50.88
126.2981,-50.5
126.3981,-51.25
126.4981,-50.88
126.5981,-50.59
126.6981,-51.72
126.7981,-51.91
126.8981,-51.82
126.9981,-51.63
127.0981,-53.04
127.1981,-53.61
127.2981,-52.48
127.3981,-50.78
127.4981,-51.72
127.5981,-52.29
127.6981,-51.44
127.7981,-51.72
127.8981,-52.19
127.9981,-51.63
128.0981,-50.78
128.1981,-50.5
128.2981,-50.22
128.3981,-50.31
128.4981,-50.5
128.5981,-51.35
128.6981,-50.97
128.7981,-50.31
128.8981,-51.16
128.9981,-52.1
129.0981,-51.91
129.1981,-51.16
129.2981,-51.63
129.3981,-51.91
129.4981,-50.69
129.5981,-50.59
129.6981,-51.44
129.7981,-50.59
129.8981,-51.25
129.9981,-51.25
130.0981,-49.56
130.1981,-49.09
130.2981,-49.94
130.3981,-51.44
130.4981,-50.78
130.5981,-51.16
130.6981,-50.88
130.7981,-50.31
130.8981,-51.91
130.9981,-51.54
131.0981,-51.82
131.1981,-52.48
131.2981,-52.01
131.3981,-51.16
131.4981,-52.38
131.5981,-52.76
131.6981,-52.29
131.7981,-52.19
131.8981,-52.67
131.9981,-53.98
132.0981,-53.42
132.1981,-51.91
132.2981,-50.41
132.3981,-50.12
132.4981,-51.82
132.5981,-52.85
132.6981,-52.38
132.7981,-51.54
132.8981,-51.54
132.9981,-51.91
133.0981,-51.07
133.1981,-49.65
133.2981,-49.56
133.3981,-50.69
133.4981,-51.07
133.5981,-52.19
133.6981,-51.91
133.7981,-52.19
133.8981,-52.1
133.9981,-52.1
134.0981,-51.82
134.1981,-51.63
134.2981,-52.29
134.3981,-50.97
134.4981,-50.97
134.5981,-52.85
134.6981,-51.82
134.7981,-51.44
134.8981,-51.91
134.9981,-53.51
135.0981,-51.72
135.1981,-50.41
135.2981,-50.22
135.3981,-51.07
135.4981,-51.91
135.5981,-51.25
135.6981,-51.82
135.7981,-53.7
135.8981,-53.14
135.9981,-52.57
136.0981,-53.51
136.1981,-51.91
136.2981,-51.25
136.3981,-51.82
136.4981,-51.16
136.5981,-51.82
136.6981,-52.01
136.7981,-53.23
136.8981,-51.63
136.9981,-50.88
137.0981,-51.72
137.1981,-52.38
137.2981,-52.48
137.3981,-52.57
137.4981,-52.01
137.5981,-52.76
137.6981,-52.48
137.7981,-51.72
137.8981,-51.44
137.9981,-51.82
138.0981,-51.54
138.1981,-51.16
138.2981,-50.97
138.3981,-53.61
138.4981,-53.32
138.5981,-51.63
138.6981,-51.72
138.7981,-51.91
138.8981,-51.82
138.9981,-50.22
139.0981,-50.41
139.1981,-53.14
139.2981,-52.29
139.3981,-51.54
139.4981,-52.85
139.5981,-52.48
139.6981,-52.48
139.7981,-52.76
139.8981,-51.82
139.9981,-50.78
140.0981,-50.69
140.1981,-51.82
140.2981,-52.38
140.3981,-50.03
140.4981,-49.84
140.5981,-50.5
140.6981,-51.54
140.7981,-51.91
140.8981,-51.54
140.9981,-52.01
141.0981,-52.48
141.1981,-51.54
141.2981,-51.91
141.3981,-52.57
141.4981,-53.23
141.5981,-52.48
141.6981,-51.91
141.7981,-51.82
141.8981,-50.5
141.9981,-49.47
142.0981,-49.84
142.1981,-50.78
142.2981,-51.72
142.3981,-51.82
142.4981,-51.16
142.5981,-51.63
142.6981,-52.19
142.7981,-53.04
142.8981,-51.91
142.9981,-51.54
143.0981,-52.29
143.1981,-52.38
143.2981,-51.82
143.3981,-50.59
143.4981,-51.25
143.5981,-51.63
143.6981,-50.88
143.7981,-51.63
143.8981,-53.14
143.9981,-52.48
144.0981,-51.63
144.1981,-52.57
144.2981,-53.23
144.3981,-53.98
144.4981,-51.91
144.5981,-53.04
144.6981,-50.31
144.7981,-50.78
144.8981,-52.67
144.9981,-52.1
145.0981,-51.16
145.1981,-52.57
145.2981,-53.42
145.3981,-53.23
145.4981,-52.48
145.5981,-52.19
145.6981,-52.57
145.7981,-53.89
145.8981,-52.1
145.9981,-50.12
146.0981,-51.63
146.1981,-52.76
146.2981,-52.95
146.3981,-53.04
146.4981,-52.29
146.5981,-52.38
146.6981,-52.01
146.7981,-53.14
146.8981,-53.98
146.9981,-53.7
147.0981,-52.29
147.1981,-51.35
147.2981,-51.35
147.3981,-52.38
147.4981,-51.07
147.5981,-52.19
147.6981,-50.59
147.7981,-50.88
147.8981,-51.16
147.9981,-52.85
148.0981,-52.57
148.1981,-52.48
148.2981,-52.38
148.3981,-51.91
148.4981,-52.85
148.5981,-52.29
148.6981,-52.48
148.7981,-52.85
148.8981,-52.57
148.9981,-51.91
149.0981,-51.35
149.1981,-50.97
149.2981,-51.25
149.3981,-52.1
149.4981,-52.67
149.5981,-52.01
149.6981,-51.44
149.7981,-52.1
149.8981,-52.57
149.9981,-51.07
150.0981,-50.59
150.1981,-49.94
150.2981,-49.18
150.3981,-51.63
150.4981,-52.1
150.5981,-52.57
150.6981,-51.91
150.7981,-52.19
150.8981,-51.54
150.9981,-51.63
151.0981,-52.19
151.1981,-52.48
151.2981,-52.67
151.3981,-51.82
151.4981,-52.01
151.5981,-52.95
151.6981,-53.51
151.7981,-52.95
151.8981,-52.76
151.9981,-52.76
152.0981,-51.91
152.1981,-52.57
152.2981,-52.1
152.3981,-51.35
152.4981,-50.69
152.5981,-50.31
152.6981,-51.44
152.7981,-51.54
152.8981,-51.72
152.9981,-51.25
153.0981,-51.16
153.1981,-50.59
153.2981,-52.01
153.3981,-52.19
153.4981,-51.54
153.5981,-52.29
153.6981,-52.48
153.7981,-50.97
153.8981,-51.07
153.9981,-51.35
154.0981,-51.07
154.1981,-51.72
154.2981,-52.57
154.3981,-52.67
154.4981,-52.38
154.5981,-50.69
154.6981,-51.44
154.7981,-51.54
154.8981,-52.1
154.9981,-51.35
155.0981,-51.91
155.1981,-52.19
155.2981,-53.42
155.3981,-53.51
155.4981,-52.67
155.5981,-52.48
155.6981,-52.38
155.7981,-51.63
155.8981,-51.07
155.9981,-52.38
156.0981,-53.42
156.1981,-52.19
156.2981,-51.44
156.3981,-51.82
156.4981,-51.35
156.5981,-50.22
156.6981,-50.12
156.7981,-52.85
156.8981,-53.23
156.9981,-52.76
157.0981,-52.29
157.1981,-52.19
157.2981,-53.23
157.3981,-54.17
157.4981,-53.32
157.5981,-51.07
157.6981,-50.88
157.7981,-50.69
157.8981,-49.65
157.9981,-50.97
158.0981,-52.76
158.1981,-52.19
158.2981,-52.01
158.3981,-52.85
158.4981,-51.54
158.5981,-51.07
158.6981,-52.67
158.7981,-53.14
158.8981,-52.76
158.9981,-52.01
159.0981,-51.91
159.1981,-52.1
159.2981,-52.1
159.3981,-51.72
159.4981,-51.63
159.5981,-51.63
159.6981,-51.63
159.7981,-51.25
159.8981,-52.57
159.9981,-52.85
160.0981,-52.95
160.1981,-53.04
160.2981,-51.72
160.3981,-51.82
160.4981,-50.97
160.5981,-50.97
160.6981,-51.72
160.7981,-52.01
160.8981,-50.69
160.9981,-50.97
161.0981,-53.04
161.1981,-53.14
161.2981,-51.72
161.3981,-52.01
161.4981,-53.14
161.5981,-52.57
161.6981,-51.82
161.7981,-51.72
161.8981,-52.67
161.9981,-53.89
162.0981,-53.51
162.1981,-52.57
162.2981,-51.35
162.3981,-52.01
162.4981,-52.29
162.5981,-52.85
162.6981,-53.04
162.7981,-52.1
162.8981,-51.63
162.9981,-50.22
163.0981,-50.78
163.1981,-52.29
163.2981,-51.54
163.3981,-51.63
163.4981,-52.29
163.5981,-53.51
163.6981,-51.63
163.7981,-50.97
163.8981,-51.35
163.9981,-50.78
164.0981,-50.5
164.1981,-52.01
164.2981,-52.19
164.3981,-52.01
164.4981,-51.54
164.5981,-50.59
164.6981,-51.54
164.7981,-52.1
164.8981,-52.19
164.9981,-52.1
165.0981,-53.79
165.1981,-53.7
165.2981,-52.19
165.3981,-53.61
165.4981,-53.98
165.5981,-53.89
165.6981,-54.17
165.7981,-53.7
165.8981,-53.23
165.9981,-52.95
166.0981,-53.32
166.1981,-51.63
166.2981,-50.88
166.3981,-52.38
166.4981,-52.57
166.5981,-52.85
166.6981,-52.67
166.7981,-52.19
166.8981,-51.35
166.9981,-52.19
167.0981,-52.01
167.1981,-52.38
167.2981,-50.59
167.3981,-50.97
167.4981,-52.1
167.5981,-51.82
167.6981,-51.25
167.7981,-50.78
167.8981,-50.97
167.9981,-51.72
168.0981,-53.14
168.1981,-53.04
168.2981,-51.63
168.3981,-51.54
168.4981,-52.67
168.5981,-51.72
168.6981,-52.76
168.7981,-52.57
168.8981,-51.35
168.9981,-52.1
169.0981,-52.85
169.1981,-51.63
169.2981,-52.76
169.3981,-53.42
169.4981,-52.57
169.5981,-51.91
169.6981,-52.19
169.7981,-54.64
169.8981,-52.38
169.9981,-52.85
170.0981,-53.32
170.1981,-52.57
170.2981,-53.7
170.3981,-51.72
170.4981,-51.82
170.5981,-52.19
170.6981,-51.16
170.7981,-51.44
170.8981,-52.01
170.9981,-51.25
171.0981,-51.16
171.1981,-50.78
171.2981,-52.1
171.3981,-51.91
171.4981,-51.91
171.5981,-54.17
171.6981,-53.42
171.7981,-53.14
171.8981,-52.1
171.9981,-52.67
172.0981,-52.76
172.1981,-52.76
172.2981,-51.54
172.3981,-51.35
172.4981,-52.57
172.5981,-52.57
172.6981,-51.82
172.7981,-52.01
172.8981,-51.91
172.9981,-51.63
173.0981,-53.04
173.1981,-52.85
173.2981,-52.95
173.3981,-53.61
173.4981,-52.1
173.5981,-51.44
173.6981,-53.04
173.7981,-53.04
173.8981,-52.85
173.9981,-53.42
174.0981,-53.79
174.1981,-52.85
174.2981,-51.63
174.3981,-53.04
174.4981,-52.57
174.5981,-53.04
174.6981,-53.51
174.7981,-52.48
174.8981,-52.57
174.9981,-52.29
175.0981,-51.54
175.1981,-52.01
175.2981,-52.1
175.3981,-51.35
175.4981,-52.57
175.5981,-54.55
175.6981,-52.48
175.7981,-52.1
175.8981,-53.7
175.9981,-54.08
176.0981,-52.48
176.1981,-51.16
176.2981,-51.91
176.3981,-53.32
176.4981,-53.79
176.5981,-53.51
176.6981,-51.54
176.7981,-51.35
176.8981,-52.01
176.9981,-53.23
177.0981,-53.42
177.1981,-52.67
177.2981,-51.44
177.3981,-51.91
177.4981,-52.1
177.5981,-52.95
177.6981,-52.67
177.7981,-51.91
177.8981,-52.01
177.9981,-52.95
178.0981,-53.51
178.1981,-53.98
178.2981,-54.36
178.3981,-52.29
178.4981,-53.42
178.5981,-54.08
178.6981,-53.98
178.7981,-53.51
178.8981,-53.04
178.9981,-52.95
179.0981,-53.14
179.1981,-52.01
179.2981,-52.01
179.3981,-53.32
179.4981,-53.04
179.5981,-52.19
179.6981,-52.57
179.7981,-52.38
179.8981,-52.67
179.9981,-52.85
180.0981,-51.07
180.1981,-51.82
180.2981,-51.16
180.3981,-51.63
180.4981,-51.54
180.5981,-51.72
180.6981,-51.54
180.7981,-52.85
180.8981,-51.72
180.9981,-52.38
181.0981,-52.48
181.1981,-51.91
181.2981,-51.44
181.3981,-51.16
181.4981,-52.01
181.5981,-53.04
181.6981,-52.95
181.7981,-52.19
181.8981,-52.38
181.9981,-52.48
182.0981,-52.85
182.1981,-53.89
182.2981,-53.98
182.3981,-52.85
182.4981,-53.04
182.5981,-52.57
182.6981,-52.57
182.7981,-53.04
182.8981,-53.7
182.9981,-54.92
183.0981,-53.23
183.1981,-52.95
183.2981,-52.57
183.3981,-52.19
183.4981,-52.85
183.5981,-52.29
183.6981,-53.04
183.7981,-52.85
183.8981,-51.63
183.9981,-51.91
184.0981,-53.32
184.1981,-52.95
184.2981,-53.14
184.3981,-52.38
184.4981,-52.19
184.5981,-52.67
184.6981,-54.08
184.7981,-53.23
184.8981,-52.01
184.9981,-52.57
185.0981,-51.91
185.1981,-52.57
185.2981,-52.67
185.3981,-53.14
185.4981,-53.23
185.5981,-53.7
185.6981,-53.32
185.7981,-52.29
185.8981,-51.82
185.9981,-54.64
186.0981,-55.39
186.1981,-53.23
186.2981,-53.89
186.3981,-53.61
186.4981,-52.57
186.5981,-52.76
186.6981,-52.38
186.7981,-52.1
186.8981,-52.01
186.9981,-52.48
187.0981,-52.19
187.1981,-52.19
187.2981,-52.76
187.3981,-52.1
187.4981,-51.44
187.5981,-52.48
187.6981,-53.98
187.7981,-52.57
187.8981,-52.38
187.9981,-52.95
188.0981,-52.95
188.1981,-52.01
188.2981,-51.54
188.3981,-51.91
188.4981,-53.14
188.5981,-52.19
188.6981,-51.91
188.7981,-52.38
188.8981,-52.67
188.9981,-52.1
189.0981,-52.19
189.1981,-52.38
189.2981,-53.32
189.3981,-53.51
189.4981,-53.79
189.5981,-52.95
189.6981,-52.29
189.7981,-52.95
189.8981,-53.61
189.9981,-52.57
190.0981,-51.82
190.1981,-52.57
190.2981,-53.14
190.3981,-53.23
190.4981,-52.48
190.5981,-52.85
190.6981,-54.27
190.7981,-53.51
190.8981,-53.04
190.9981,-52.67
191.0981,-52.38
191.1981,-53.42
191.2981,-53.98
191.3981,-52.95
191.4981,-53.79
191.5981,-53.79
191.6981,-53.7
191.7981,-53.42
191.8981,-52.76
191.9981,-51.72
192.0981,-50.78
192.1981,-52.38
192.2981,-54.45
192.3981,-54.55
192.4981,-53.79
192.5981,-52.1
192.6981,-52.95
192.7981,-55.11
192.8981,-54.17
192.9981,-54.92
193.0981,-53.79
193.1981,-52.95
193.2981,-52.38
193.3981,-51.91
193.4981,-52.95
193.5981,-52.1
193.6981,-51.82
193.7981,-52.29
193.8981,-52.76
193.9981,-54.83
194.0981,-54.64
194.1981,-53.04
194.2981,-53.51
194.3981,-54.55
194.4981,-55.39
194.5981,-53.23
194.6981,-52.57
194.7981,-52.67
194.8981,-53.42
194.9981,-53.61
195.0981,-54.45
195.1981,-53.23
195.2981,-53.89
195.3981,-54.64
195.4981,-52.76
195.5981,-52.29
195.6981,-53.89
195.7981,-54.08
195.8981,-52.67
195.9981,-52.01
196.0981,-53.32
196.1981,-53.32
196.2981,-53.14
196.3981,-53.51
196.4981,-52.38
196.5981,-52.29
196.6981,-53.04
196.7981,-53.98
196.8981,-53.04
196.9981,-53.14
197.0981,-52.57
197.1981,-51.72
197.2981,-51.63
197.3981,-53.32
197.4981,-52.85
197.5981,-53.14
197.6981,-52.95
197.7981,-52.95
197.8981,-52.57
197.9981,-53.04
198.0981,-53.98
198.1981,-53.98
198.2981,-53.23
198.3981,-54.27
198.4981,-53.14
198.5981,-54.64
198.6981,-54.17
198.7981,-53.04
198.8981,-52.85
198.9981,-53.61
199.0981,-53.98
199.1981,-53.61
199.2981,-54.83
199.3981,-54.64
199.4981,-52.57
199.5981,-53.04
199.6981,-54.55
199.7981,-55.11
199.8981,-54.17
199.9981,-52.38
200.0981,-53.42
200.1981,-54.36
200.2981,-53.42
200.3981,-54.36
200.4981,-53.51
200.5981,-53.7
200.6981,-54.83
200.7981,-52.67
200.8981,-51.63
200.9981,-53.23
201.0981,-53.51
201.1981,-53.14
201.2981,-53.61
201.3981,-53.32
201.4981,-53.61
201.5981,-53.14
201.6981,-52.19
201.7981,-52.38
201.8981,-52.48
201.9981,-53.32
202.0981,-53.42
202.1981,-54.45
202.2981,-54.36
202.3981,-54.64
202.4981,-53.42
202.5981,-53.51
202.6981,-53.79
202.7981,-53.04
202.8981,-53.14
202.9981,-52.76
203.0981,-51.91
203.1981,-53.42
203.2981,-53.89
203.3981,-53.42
203.4981,-52.1
203.5981,-52.48
203.6981,-52.85
203.7981,-53.04
203.8981,-53.79
203.9981,-53.61
204.0981,-53.04
204.1981,-54.36
204.2981,-52.38
204.3981,-51.54
204.4981,-51.82
204.5981,-52.85
204.6981,-53.14
204.7981,-52.85
204.8981,-53.32
204.9981,-52.85
205.0981,-54.36
205.1981,-53.98
205.2981,-53.23
205.3981,-53.98
205.4981,-51.91
205.5981,-52.19
205.6981,-53.51
205.7981,-52.1
205.8981,-51.82
205.9981,-53.14
206.0981,-53.89
206.1981,-54.36
206.2981,-52.85
206.3981,-53.14
206.4981,-53.04
206.5981,-52.95
206.6981,-52.01
206.7981,-52.38
206.8981,-53.14
206.9981,-53.51
207.0981,-52.67
207.1981,-52.85
207.2981,-52.38
207.3981,-53.32
207.4981,-54.27
207.5981,-52.95
207.6981,-53.32
207.7981,-52.67
207.8981,-53.14
207.9981,-54.27
208.0981,-54.27
208.1981,-54.92
208.2981,-53.79
208.3981,-52.01
208.4981,-52.76
208.5981,-52.67
208.6981,-53.23
208.7981,-53.51
208.8981,-52.67
208.9981,-54.17
209.0981,-53.32
209.1981,-52.19
209.2981,-52.19
209.3981,-53.89
209.4981,-54.64
209.5981,-53.04
209.6981,-52.85
209.7981,-54.08
209.8981,-55.3
209.9981,-54.92
210.0981,-53.23
210.1981,-51.91
210.2981,-52.95
210.3981,-51.16
210.4981,-50.97
210.5981,-51.54
210.6981,-52.76
210.7981,-53.42
210.8981,-53.32
210.9981,-53.04
211.0981,-52.1
211.1981,-52.76
211.2981,-53.23
211.3981,-52.95
211.4981,-53.79
211.5981,-53.14
211.6981,-52.95
211.7981,-54.64
211.8981,-53.42
211.9981,-51.91
212.0981,-53.51
212.1981,-53.04
212.2981,-52.76
212.3981,-53.14
212.4981,-54.74
212.5981,-53.14
212.6981,-52.95
212.7981,-52.67
212.8981,-52.38
212.9981,-52.48
213.0981,-52.76
213.1981,-51.25
213.2981,-52.85
213.3981,-54.08
213.4981,-53.7
213.5981,-53.14
213.6981,-52.29
213.7981,-52.67
213.8981,-52.85
213.9981,-52.29
214.0981,-53.32
214.1981,-53.61
214.2981,-52.85
214.3981,-53.14
214.4981,-53.79
214.5981,-53.61
214.6981,-54.08
214.7981,-53.7
214.8981,-53.79
214.9981,-53.32
215.0981,-53.7
215.1981,-52.57
215.2981,-53.04
215.3981,-54.08
215.4981,-53.51
215.5981,-53.23
215.6981,-53.04
215.7981,-52.85
215.8981,-53.14
215.9981,-53.79
216.0981,-52.76
216.1981,-52.48
216.2981,-52.67
216.3981,-53.04
216.4981,-54.74
216.5981,-54.64
216.6981,-54.55
216.7981,-53.98
216.8981,-54.17
216.9981,-53.42
217.0981,-54.45
217.1981,-55.96
217.2981,-53.61
217.3981,-54.17
217.4981,-53.32
217.5981,-52.76
217.6981,-53.04
217.7981,-52.85
217.8981,-53.23
217.9981,-52.38
218.0981,-52.95
218.1981,-53.32
218.2981,-54.55
218.3981,-53.51
218.4981,-53.42
218.5981,-52.85
218.6981,-53.32
218.7981,-52.48
218.8981,-53.04
218.9981,-52.38
219.0981,-51.82
219.1981,-52.19
219.2981,-53.23
219.3981,-55.02
219.4981,-55.3
219.5981,-54.74
219.6981,-54.83
219.7981,-54.08
219.8981,-53.51
219.9981,-53.89
220.0981,-53.32
220.1981,-53.51
220.2981,-54.92
220.3981,-53.32
220.4981,-52.76
220.5981,-52.1
220.6981,-54.36
220.7981,-54.83
220.8981,-53.42
220.9981,-53.23
221.0981,-53.42
221.1981,-54.08
221.2981,-55.02
221.3981,-53.79
221.4981,-52.95
221.5981,-52.57
221.6981,-54.27
221.7981,-54.36
221.8981,-54.83
221.9981,-54.27
222.0981,-53.14
222.1981,-53.04
222.2981,-53.61
222.3981,-54.92
222.4981,-54.64
222.5981,-54.17
222.6981,-53.04
222.7981,-53.14
222.8981,-52.19
222.9981,-54.27
223.0981,-55.39
223.1981,-55.87
223.2981,-54.08
223.3981,-53.89
223.4981,-52.67
223.5981,-52.67
223.6981,-52.29
223.7981,-53.61
223.8981,-52.76
223.9981,-53.04
224.0981,-52.95
224.1981,-52.38
224.2981,-53.04
224.3981,-54.92
224.4981,-53.14
224.5981,-54.55
224.6981,-53.89
224.7981,-53.23
224.8981,-53.98
224.9981,-53.89
225.0981,-54.08
225.1981,-53.89
225.2981,-53.04
225.3981,-52.85
225.4981,-53.51
225.5981,-53.98
225.6981,-53.14
225.7981,-53.61
225.8981,-55.21
225.9981,-55.58
226.0981,-53.51
226.1981,-54.17
226.2981,-53.7
226.3981,-52.57
226.4981,-52.67
226.5981,-53.89
226.6981,-52.76
226.7981,-51.82
226.8981,-53.32
226.9981,-54.45
227.0981,-53.14
227.1981,-52.48
227.2981,-52.57
227.3981,-52.57
227.4981,-53.79
227.5981,-53.7
227.6981,-53.7
227.7981,-52.76
227.8981,-53.23
227.9981,-53.79
228.0981,-52.38
228.1981,-52.76
228.2981,-53.23
228.3981,-52.38
228.4981,-53.04
228.5981,-53.32
228.6981,-52.1
228.7981,-52.95
228.8981,-54.17
228.9981,-53.32
229.0981,-53.7
229.1981,-53.42
229.2981,-52.67
229.3981,-54.27
229.4981,-53.42
229.5981,-54.27
229.6981,-53.23
229.7981,-53.32
229.8981,-54.36
229.9981,-54.17
230.0981,-54.64
230.1981,-53.32
230.2981,-52.76
230.3981,-54.55
230.4981,-54.55
230.5981,-53.23
230.6981,-53.61
230.7981,-54.64
230.8981,-53.79
230.9981,-53.61
231.0981,-53.51
231.1981,-53.32
231.2981,-53.79
231.3981,-53.61
231.4981,-53.42
231.5981,-53.51
231.6981,-54.27
231.7981,-54.36
231.8981,-54.17
231.9981,-53.89
232.0981,-53.42
232.1981,-52.48
232.2981,-53.51
232.3981,-53.32
232.4981,-52.67
232.5981,-52.85
232.6981,-52.19
232.7981,-53.23
232.8981,-54.55
232.9981,-54.36
233.0981,-54.64
233.1981,-53.61
233.2981,-53.51
233.3981,-53.51
233.4981,-53.14
233.5981,-53.14
233.6981,-53.23
233.7981,-54.08
233.8981,-53.98
233.9981,-53.04
234.0981,-53.42
234.1981,-53.42
234.2981,-55.02
234.3981,-54.83
234.4981,-54.36
234.5981,-52.85
234.6981,-53.23
234.7981,-53.23
234.8981,-53.51
234.9981,-54.64
235.0981,-53.42
235.1981,-52.38
235.2981,-52.38
235.3981,-52.57
235.4981,-53.42
235.5981,-53.7
235.6981,-52.01
235.7981,-52.48
235.8981,-54.08
235.9981,-53.23
236.0981,-52.1
236.1981,-52.95
236.2981,-53.89
236.3981,-53.7
236.4981,-52.57
236.5981,-52.76
236.6981,-53.89
236.7981,-54.17
236.8981,-53.7
236.9981,-53.98
237.0981,-55.68
237.1981,-54.83
237.2981,-53.42
237.3981,-53.14
237.4981,-53.32
237.5981,-53.79
237.6981,-54.27
237.7981,-54.45
237.8981,-53.98
237.9981,-53.14
238.0981,-53.23
238.1981,-54.08
238.2981,-54.64
238.3981,-55.11
238.4981,-54.27
238.5981,-53.23
238.6981,-52.67
238.7981,-52.85
238.8981,-53.98
238.9981,-53.42
239.0981,-53.04
239.1981,-52.19
239.2981,-52.85
239.3981,-53.61
239.4981,-53.7
239.5981,-54.92
239.6981,-54.27
239.7981,-54.08
239.8981,-53.7
239.9981,-54.55
240.0981,-53.98
240.1981,-53.14
240.2981,-53.98
240.3981,-53.79
240.4981,-54.08
240.5981,-54.17
240.6981,-54.36
240.7981,-53.89
240.8981,-52.95
240.9981,-54.08
241.0981,-53.79
241.1981,-53.42
241.2981,-53.04
241.3981,-53.04
241.4981,-53.23
241.5981,-54.27
241.6981,-53.98
241.7981,-54.45
241.8981,-53.23
241.9981,-52.76
242.0981,-54.74
242.1981,-55.39
242.2981,-54.64
242.3981,-54.74
242.4981,-53.14
242.5981,-53.7
242.6981,-54.45
242.7981,-53.04
242.8981,-54.55
242.9981,-53.98
243.0981,-53.51
243.1981,-53.32
243.2981,-53.23
243.3981,-53.61
243.4981,-55.21
243.5981,-53.79
243.6981,-53.7
243.7981,-52.76
243.8981,-54.17
243.9981,-53.23
244.0981,-52.48
244.1981,-53.89
244.2981,-54.36
244.3981,-53.79
244.4981,-53.7
244.5981,-53.7
244.6981,-53.79
244.7981,-54.45
244.8981,-53.23
244.9981,-53.32
245.0981,-53.7
245.1981,-52.38
245.2981,-52.29
245.3981,-54.27
245.4981,-53.04
245.5981,-53.51
245.6981,-53.32
245.7981,-53.04
245.8981,-53.79
245.9981,-53.79
246.0981,-53.89
246.1981,-54.08
246.2981,-53.89
246.3981,-55.39
246.4981,-55.58
246.5981,-55.3
246.6981,-54.27
246.7981,-55.3
246.8981,-55.21
246.9981,-54.08
247.0981,-53.61
247.1981,-53.14
247.2981,-53.04
247.3981,-52.95
247.4981,-53.23
247.5981,-53.79
247.6981,-52.85
247.7981,-52.57
247.8981,-51.63
247.9981,-52.85
248.0981,-53.42
248.1981,-53.61
248.2981,-52.76
248.3981,-52.19
248.4981,-53.61
248.5981,-53.14
248.6981,-52.29
248.7981,-52.95
248.8981,-53.32
248.9981,-53.04
249.0981,-52.48
249.1981,-52.95
249.2981,-53.51
249.3981,-54.45
249.4981,-55.21
249.5981,-55.11
249.6981,-53.51
249.7981,-53.04
249.8981,-52.67
249.9981,-52.85
250.0981,-53.61
250.1981,-53.04
250.2981,-53.89
250.3981,-54.55
250.4981,-53.7
250.5981,-54.08
250.6981,-53.51
250.7981,-52.76
250.8981,-52.67
250.9981,-53.51
251.0981,-54.45
251.1981,-53.61
251.2981,-53.04
251.3981,-52.85
251.4981,-54.17
251.5981,-52.57
251.6981,-52.01
251.7981,-52.48
251.8981,-52.67
251.9981,-51.54
252.0981,-53.04
252.1981,-55.02
252.2981,-54.36
252.3981,-53.51
252.4981,-53.42
252.5981,-52.29
252.6981,-52.67
252.7981,-52.85
252.8981,-54.83
252.9981,-55.11
253.0981,-54.83
253.1981,-53.79
253.2981,-52.67
253.3981,-53.98
253.4981,-55.02
253.5981,-53.23
253.6981,-52.67
253.7981,-53.89
253.8981,-53.98
253.9981,-54.92
254.0981,-55.21
254.1981,-53.7
254.2981,-53.51
254.3981,-53.98
254.4981,-52.95
254.5981,-53.61
254.6981,-53.23
254.7981,-53.61
254.8981,-53.61
254.9981,-52.67
255.0981,-52.19
255.1981,-53.04
255.2981,-52.67
255.3981,-52.67
255.4981,-52.19
255.5981,-52.38
255.6981,-53.23
255.7981,-54.45
255.8981,-53.14
255.9981,-53.89
256.0981,-53.7
256.1981,-53.23
256.2981,-54.74
256.3981,-54.36
256.4981,-55.11
256.5981,-54.83
256.6981,-53.51
256.7981,-53.04
256.8981,-53.7
256.9981,-54.64
257.0981,-53.98
257.1981,-53.7
257.2981,-53.98
257.3981,-53.61
257.4981,-52.95
257.5981,-53.51
257.6981,-53.61
257.7981,-54.27
257.8981,-53.61
257.9981,-52.19
258.0981,-51.82
258.1981,-52.85
258.2981,-54.55
258.3981,-55.11
258.4981,-54.55
258.5981,-53.42
258.6981,-52.48
258.7981,-52.57
258.8981,-51.91
258.9981,-51.91
259.0981,-53.42
259.1981,-53.51
259.2981,-53.89
259.3981,-53.79
259.4981,-53.42
259.5981,-53.7
259.6981,-54.08
259.7981,-53.51
259.8981,-53.89
259.9981,-54.36
260.0981,-54.74
260.1981,-54.36
260.2981,-54.36
260.3981,-53.42
260.4981,-53.51
260.5981,-54.92
260.6981,-53.89
260.7981,-53.51
260.8981,-53.7
260.9981,-53.79
261.0981,-53.42
261.1981,-52.29
261.2981,-52.95
261.3981,-54.55
261.4981,-56.24
261.5981,-53.61
261.6981,-53.79
261.7981,-53.04
261.8981,-52.85
261.9981,-52.29
262.0981,-52.01
262.1981,-52.85
262.2981,-52.57
262.3981,-52.01
262.4981,-52.95
262.5981,-53.98
262.6981,-53.98
262.7981,-54.55
262.8981,-53.42
262.9981,-54.27
263.0981,-54.92
263.1981,-53.98
263.2981,-54.17
263.3981,-54.55
263.4981,-53.42
263.5981,-53.23
263.6981,-52.76
263.7981,-53.79
263.8981,-53.51
263.9981,-53.7
264.0981,-54.08
264.1981,-54.45
264.2981,-53.98
264.3981,-54.55
264.4981,-53.7
264.5981,-53.42
264.6981,-54.08
264.7981,-53.42
264.8981,-52.67
264.9981,-52.67
265.0981,-53.79
265.1981,-55.87
265.2981,-53.79
265.3981,-53.14
265.4981,-53.32
265.5981,-53.89
265.6981,-53.7
265.7981,-53.51
265.8981,-53.23
265.9981,-52.38
266.0981,-53.7
266.1981,-53.51
266.2981,-54.08
266.3981,-55.02
266.4981,-54.92
266.5981,-53.23
266.6981,-53.79
266.7981,-54.08
266.8981,-53.98
266.9981,-53.23
267.0981,-53.32
267.1981,-53.23
267.2981,-53.51
267.3981,-53.61
267.4981,-53.61
267.5981,-53.89
267.6981,-53.7
267.7981,-53.14
267.8981,-53.04
267.9981,-53.32
268.0981,-53.98
268.1981,-53.7
268.2981,-52.48
268.3981,-52.57
268.4981,-52.19
268.5981,-53.61
268.6981,-54.36
268.7981,-54.36
268.8981,-53.89
268.9981,-54.17
269.0981,-54.17
269.1981,-54.55
269.2981,-53.32
269.3981,-53.42
269.4981,-53.7
269.5981,-54.08
269.6981,-53.04
269.7981,-54.55
269.8981,-54.17
269.9981,-53.98
270.0981,-53.98
270.1981,-55.77
270.2981,-53.98
270.3981,-53.14
270.4981,-53.98
270.5981,-55.68
270.6981,-53.98
270.7981,-53.51
270.8981,-53.32
270.9981,-55.21
271.0981,-54.08
271.1981,-54.36
271.2981,-53.7
271.3981,-53.23
271.4981,-53.42
271.5981,-53.14
271.6981,-53.51
271.7981,-53.23
271.8981,-52.85
271.9981,-52.95
272.0981,-53.04
272.1981,-53.89
272.2981,-53.42
272.3981,-52.85
272.4981,-53.98
272.5981,-54.92
272.6981,-54.64
272.7981,-53.23
272.8981,-52.76
272.9981,-53.51
273.0981,-53.51
273.1981,-53.89
273.2981,-56.05
273.3981,-55.11
273.4981,-54.74
273.5981,-54.08
273.6981,-53.14
273.7981,-54.64
273.8981,-55.87
273.9981,-55.3
274.0981,-55.21
274.1981,-54.55
274.2981,-52.76
274.3981,-52.85
274.4981,-54.36
274.5981,-54.08
274.6981,-54.17
274.7981,-54.36
274.8981,-53.89
274.9981,-52.76
275.0981,-53.89
275.1981,-53.61
275.2981,-52.48
275.3981,-54.17
275.4981,-55.96
275.5981,-54.92
275.6981,-54.45
275.7981,-54.17
275.8981,-56.52
275.9981,-53.51
276.0981,-53.7
276.1981,-53.89
276.2981,-52.29
276.3981,-54.83
276.4981,-54.64
276.5981,-53.89
276.6981,-54.74
276.7981,-54.83
276.8981,-53.7
276.9981,-53.79
277.0981,-55.68
277.1981,-56.52
277.2981,-55.39
277.3981,-54.74
277.4981,-55.39
277.5981,-54.64
277.6981,-54.36
277.7981,-53.7
277.8981,-53.32
277.9981,-53.32
278.0981,-53.51
278.1981,-53.04
278.2981,-54.08
278.3981,-53.42
278.4981,-53.14
278.5981,-53.89
278.6981,-53.89
278.7981,-54.64
278.8981,-54.64
278.9981,-53.98
279.0981,-52.57
279.1981,-53.98
279.2981,-53.79
279.3981,-53.79
279.4981,-54.74
279.5981,-54.83
279.6981,-53.89
279.7981,-54.17
279.8981,-54.08
279.9981,-54.45
280.0981,-54.74
280.1981,-55.11
280.2981,-55.11
280.3981,-55.87
280.4981,-53.51
280.5981,-53.42
280.6981,-54.74
280.7981,-53.79
280.8981,-52.48
280.9981,-52.85
281.0981,-53.7
281.1981,-53.7
281.2981,-54.36
281.3981,-52.95
281.4981,-52.29
281.5981,-53.32
281.6981,-53.61
281.7981,-53.32
281.8981,-53.51
281.9981,-54.64
282.0981,-53.04
282.1981,-52.76
282.2981,-53.42
282.3981,-53.32
282.4981,-53.14
282.5981,-51.72
282.6981,-53.14
282.7981,-54.27
282.8981,-54.55
282.9981,-54.83
283.0981,-53.32
283.1981,-53.51
283.2981,-53.79
283.3981,-54.08
283.4981,-53.79
283.5981,-54.36
283.6981,-55.11
283.7981,-55.11
283.8981,-53.14
283.9981,-53.42
284.0981,-52.85
284.1981,-53.7
284.2981,-53.04
284.3981,-53.42
284.4981,-53.79
284.5981,-53.89
284.6981,-53.04
284.7981,-53.51
284.8981,-53.61
284.9981,-53.23
285.0981,-54.64
285.1981,-53.23
285.2981,-54.36
285.3981,-54.27
285.4981,-52.57
285.5981,-51.54
285.6981,-52.76
285.7981,-54.55
285.8981,-55.87
285.9981,-54.27
286.0981,-54.17
286.1981,-52.57
286.2981,-52.76
286.3981,-53.04
286.4981,-52.38
286.5981,-52.57
286.6981,-52.48
286.7981,-54.36
286.8981,-56.15
286.9981,-56.24
287.0981,-55.11
287.1981,-55.02
287.2981,-54.74
287.3981,-55.39
287.4981,-54.64
287.5981,-54.83
287.6981,-53.14
287.7981,-53.04
287.8981,-52.95
287.9981,-53.7
288.0981,-53.23
288.1981,-53.51
288.2981,-53.04
288.3981,-54.17
288.4981,-54.45
288.5981,-53.04
288.6981,-53.42
288.7981,-52.76
288.8981,-53.98
288.9981,-54.08
289.0981,-54.08
289.1981,-54.45
289.2981,-54.08
289.3981,-52.1
289.4981,-53.23
289.5981,-53.42
289.6981,-53.7
289.7981,-54.17
289.8981,-56.15
289.9981,-55.68
290.0981,-54.27
290.1981,-53.79
290.2981,-54.55
290.3981,-54.27
290.4981,-55.21
290.5981,-54.08
290.6981,-53.79
290.7981,-55.11
290.8981,-56.15
290.9981,-54.74
291.0981,-54.64
291.1981,-55.3
291.2981,-55.58
291.3981,-54.17
291.4981,-53.32
291.5981,-53.7
291.6981,-53.04
291.7981,-52.57
291.8981,-53.61
291.9981,-54.17
292.0981,-54.83
292.1981,-54.36
292.2981,-53.7
292.3981,-52.95
292.4981,-54.08
292.5981,-54.55
292.6981,-54.64
292.7981,-54.74
292.8981,-54.36
292.9981,-54.83
293.0981,-55.02
293.1981,-54.27
293.2981,-54.17
293.3981,-54.45
293.4981,-55.77
293.5981,-53.61
293.6981,-53.7
293.7981,-53.51
293.8981,-53.42
293.9981,-55.11
294.0981,-54.27
294.1981,-53.79
294.2981,-55.02
294.3981,-54.17
294.4981,-54.36
294.5981,-55.3
294.6981,-54.74
294.7981,-53.61
294.8981,-52.76
294.9981,-54.36
295.0981,-53.61
295.1981,-53.98
295.2981,-53.89
295.3981,-54.36
295.4981,-54.64
295.5981,-53.42
295.6981,-53.61
295.7981,-53.14
295.8981,-53.42
295.9981,-55.21
296.0981,-54.08
296.1981,-53.98
296.2981,-54.36
296.3981,-54.27
296.4981,-54.64
296.5981,-53.04
296.6981,-53.98
296.7981,-54.08
296.8981,-54.36
296.9981,-54.17
297.0981,-56.71
297.1981,-55.58
297.2981,-52.1
297.3981,-52.29
297.4981,-53.51
297.5981,-53.7
297.6981,-52.85
297.7981,-53.04
297.8981,-55.02
297.9981,-55.11
298.0981,-53.79
298.1981,-54.17
298.2981,-54.55
298.3981,-54.17
298.4981,-54.17
298.5981,-54.64
298.6981,-53.98
298.7981,-54.36
298.8981,-54.64
298.9981,-54.27
299.8981,-82.41
299.9981,-55.02
300.0981,-54.08
300.1981,-53.14
300.2981,-54.74
300.3981,-54.74
300.4981,-54.08
300.5981,-53.98
300.6981,-53.89
300.7981,-53.89
300.8981,-54.55
300.9981,-54.74
301.0981,-54.74
301.1981,-54.64
301.2981,-54.17
301.3981,-55.49
301.4981,-54.36
301.5981,-54.27
301.6981,-53.7
301.7981,-53.7
301.8981,-54.27
301.9981,-55.11
302.0981,-53.89
302.1981,-54.64
302.2981,-53.32
302.3981,-52.57
302.4981,-54.64
302.5981,-54.08
302.6981,-52.85
302.7981,-53.32
302.8981,-52.57
302.9981,-53.04
303.0981,-53.04
303.1981,-53.61
303.2981,-53.42
303.3981,-53.04
303.4981,-53.42
303.5981,-53.89
303.6981,-53.7
303.7981,-53.61
303.8981,-52.76
303.9981,-54.74
304.0981,-54.64
304.1981,-53.61
304.2981,-55.3
304.3981,-54.45
304.4981,-54.64
304.5981,-55.3
304.6981,-55.58
304.7981,-54.92
304.8981,-53.61
304.9981,-53.14
305.0981,-53.79
305.1981,-53.79
305.2981,-55.21
305.3981,-54.92
305.4981,-54.83
305.5981,-55.58
305.6981,-56.52
305.7981,-54.45
305.8981,-52.67
305.9981,-52.95
306.0981,-53.61
306.1981,-54.55
306.2981,-53.23
306.3981,-53.61
306.4981,-52.38
306.5981,-53.14
306.6981,-53.14
306.7981,-53.42
306.8981,-52.85
306.9981,-52.19
307.0981,-52.67
307.1981,-53.98
307.2981,-54.17
307.3981,-54.36
307.4981,-53.61
307.5981,-53.98
307.6981,-53.51
307.7981,-54.64
307.8981,-55.58
307.9981,-54.74
308.0981,-55.49
308.1981,-55.02
308.2981,-54.08
308.3981,-53.23
308.4981,-53.51
308.5981,-53.61
308.6981,-54.83
308.7981,-53.98
308.8981,-55.11
308.9981,-54.27
309.0981,-53.42
309.1981,-55.02
309.2981,-53.79
309.3981,-54.64
309.4981,-53.51
309.5981,-52.76
309.6981,-53.42
309.7981,-54.83
309.8981,-54.36
309.9981,-52.76
310.0981,-53.51
310.1981,-53.51
310.2981,-54.27
310.3981,-54.55
310.4981,-55.11
310.5981,-53.79
310.6981,-53.79
310.7981,-54.36
310.8981,-53.51
310.9981,-53.14
311.0981,-53.14
311.1981,-54.36
311.2981,-53.51
311.3981,-54.55
311.4981,-53.98
311.5981,-53.79
311.6981,-55.58
311.7981,-53.51
311.8981,-54.83
311.9981,-55.39
312.0981,-54.27
312.1981,-53.98
312.2981,-55.11
312.3981,-54.27
312.4981,-53.32
312.5981,-52.76
312.6981,-53.14
312.7981,-54.08
312.8981,-53.79
312.9981,-53.14
313.0981,-51.82
313.1981,-52.01
313.2981,-53.98
313.3981,-54.45
313.4981,-54.45
313.5981,-54.17
313.6981,-53.51
313.7981,-53.89
313.8981,-55.3
313.9981,-55.02
314.0981,-54.83
314.1981,-53.61
314.2981,-53.42
314.3981,-54.64
314.4981,-54.17
314.5981,-53.42
314.6981,-54.27
314.7981,-55.11
314.8981,-55.39
314.9981,-54.55
315.0981,-54.74
315.1981,-55.77
315.2981,-55.11
315.3981,-54.83
315.4981,-54.83
315.5981,-54.45
315.6981,-54.17
315.7981,-53.51
315.8981,-53.61
315.9981,-54.36
316.0981,-53.79
316.1981,-53.51
316.2981,-53.98
316.3981,-54.17
316.4981,-53.42
316.5981,-54.55
316.6981,-54.17
316.7981,-53.32
316.8981,-53.51
316.9981,-53.14
317.0981,-53.51
317.1981,-53.7
317.2981,-53.61
317.3981,-52.38
317.4981,-53.32
317.5981,-52.29
317.6981,-53.42
317.7981,-54.45
317.8981,-53.98
317.9981,-54.74
318.0981,-53.51
318.1981,-54.08
318.2981,-53.79
318.3981,-54.45
318.4981,-53.61
318.5981,-52.57
318.6981,-53.79
318.7981,-53.89
318.8981,-55.77
318.9981,-54.83
319.0981,-53.79
319.1981,-53.51
319.2981,-53.61
319.3981,-53.89
319.4981,-54.36
319.5981,-54.27
319.6981,-52.76
319.7981,-53.61
319.8981,-53.79
319.9981,-55.21
320.0981,-55.02
320.1981,-53.42
320.2981,-53.32
320.3981,-55.11
320.4981,-53.51
320.5981,-52.76
320.6981,-55.02
320.7981,-53.04
320.8981,-52.01
320.9981,-53.23
321.0981,-54.64
321.1981,-54.36
321.2981,-53.7
321.3981,-53.79
321.4981,-53.51
321.5981,-52.76
321.6981,-53.7
321.7981,-53.32
321.8981,-53.42
321.9981,-54.83
322.0981,-54.83
322.1981,-53.7
322.2981,-53.61
322.3981,-54.36
322.4981,-54.74
322.5981,-52.85
322.6981,-52.95
322.7981,-53.42
322.8981,-52.48
322.9981,-53.42
323.0981,-54.45
323.1981,-52.95
323.2981,-53.14
323.3981,-53.51
323.4981,-52.48
323.5981,-52.85
323.6981,-53.7
323.7981,-54.27
323.8981,-53.61
323.9981,-53.42
324.0981,-52.95
324.1981,-54.55
324.2981,-54.08
324.3981,-53.32
324.4981,-53.42
324.5981,-53.32
324.6981,-54.08
324.7981,-54.55
324.8981,-53.7
324.9981,-52.95
325.0981,-53.14
325.1981,-53.42
325.2981,-53.32
325.3981,-53.04
325.4981,-54.45
325.5981,-56.24
325.6981,-54.74
325.7981,-54.55
325.8981,-55.87
325.9981,-55.21
326.0981,-55.21
326.1981,-55.77
326.2981,-53.79
326.3981,-53.04
326.4981,-51.91
326.5981,-52.48
326.6981,-53.23
326.7981,-53.04
326.8981,-53.32
326.9981,-53.51
327.0981,-53.42
327.1981,-52.38
327.2981,-54.08
327.3981,-55.21
327.4981,-54.27
327.5981,-53.14
327.6981,-53.79
327.7981,-54.17
327.8981,-55.02
327.9981,-53.32
328.0981,-53.42
328.1981,-54.92
328.2981,-53.89
328.3981,-54.45
328.4981,-54.92
328.5981,-53.7
328.6981,-53.14
328.7981,-53.7
328.8981,-53.42
328.9981,-53.51
329.0981,-53.79
329.1981,-55.21
329.2981,-53.51
329.3981,-52.48
329.4981,-52.67
329.5981,-52.57
329.6981,-53.04
329.7981,-52.95
329.8981,-53.51
329.9981,-53.7
330.0981,-54.64
330.1981,-53.14
330.2981,-52.95
330.3981,-53.7
330.4981,-53.51
330.5981,-53.89
330.6981,-54.55
330.7981,-54.17
330.8981,-53.79
330.9981,-51.63
331.0981,-52.85
331.1981,-54.64
331.2981,-53.32
331.3981,-52.85
331.4981,-53.42
331.5981,-52.76
331.6981,-52.48
331.7981,-53.89
331.8981,-53.61
331.9981,-53.79
332.0981,-54.36
332.1981,-53.89
332.2981,-54.17
332.3981,-53.98
332.4981,-53.51
332.5981,-53.61
332.6981,-54.64
332.7981,-53.79
332.8981,-52.01
332.9981,-52.1
333.0981,-52.95
333.1981,-53.51
333.2981,-52.95
333.3981,-52.95
333.4981,-53.42
333.5981,-53.23
333.6981,-52.85
333.7981,-53.7
333.8981,-53.42
333.9981,-54.08
334.0981,-54.08
334.1981,-54.55
334.2981,-55.87
334.3981,-54.83
334.4981,-54.27
334.5981,-55.58
334.6981,-54.64
334.7981,-54.17
334.8981,-53.51
334.9981,-53.51
335.0981,-53.32
335.1981,-52.57
335.2981,-52.67
335.3981,-52.95
335.4981,-52.76
335.5981,-53.51
335.6981,-53.23
335.7981,-52.48
335.8981,-52.67
335.9981,-53.42
336.0981,-53.23
336.1981,-52.85
336.2981,-53.04
336.3981,-52.85
336.4981,-53.7
336.5981,-52.95
336.6981,-51.91
336.7981,-52.57
336.8981,-53.7
336.9981,-54.27
337.0981,-54.27
337.1981,-53.23
337.2981,-52.19
337.3981,-52.48
337.4981,-52.1
337.5981,-52.29
337.6981,-52.76
337.7981,-53.51
337.8981,-54.17
337.9981,-52.29
338.0981,-52.19
338.1981,-52.48
338.2981,-53.32
338.3981,-54.74
338.4981,-53.61
338.5981,-53.32
338.6981,-52.67
338.7981,-52.85
338.8981,-53.89
338.9981,-53.79
339.0981,-52.67
339.1981,-54.17
339.2981,-55.39
339.3981,-55.21
339.4981,-53.7
339.5981,-53.32
339.6981,-54.92
339.7981,-54.55
339.8981,-53.23
339.9981,-53.42
340.0981,-53.04
340.1981,-53.89
340.2981,-55.39
340.3981,-53.32
340.4981,-53.14
340.5981,-53.79
340.6981,-54.64
340.7981,-54.36
340.8981,-52.95
340.9981,-54.27
341.0981,-53.89
341.1981,-53.98
341.2981,-52.67
341.3981,-52.38
341.4981,-53.61
341.5981,-54.55
341.6981,-54.27
341.7981,-54.17
341.8981,-54.08
341.9981,-53.23
342.0981,-53.23
342.1981,-56.81
342.2981,-54.55
342.3981,-53.79
342.4981,-53.79
342.5981,-52.95
342.6981,-53.04
342.7981,-53.7
342.8981,-53.79
342.9981,-53.23
343.0981,-54.08
343.1981,-54.08
343.2981,-52.76
343.3981,-52.38
343.4981,-52.19
343.5981,-52.95
343.6981,-53.98
343.7981,-53.89
343.8981,-53.89
343.9981,-52.29
344.0981,-52.85
344.1981,-53.04
344.2981,-53.23
344.3981,-54.08
344.4981,-54.64
344.5981,-54.45
344.6981,-53.51
344.7981,-52.95
344.8981,-53.79
344.9981,-53.79
345.0981,-55.02
345.1981,-53.23
345.2981,-52.67
345.3981,-52.57
345.4981,-54.08
345.5981,-54.92
345.6981,-53.98
345.7981,-54.45
345.8981,-54.27
345.9981,-55.02
346.0981,-54.74
346.1981,-54.36
346.2981,-54.55
346.3981,-54.27
346.4981,-54.17
346.5981,-53.79
346.6981,-55.21
346.7981,-55.11
346.8981,-53.89
346.9981,-53.89
347.0981,-52.95
347.1981,-54.08
347.2981,-54.27
347.3981,-54.45
347.4981,-54.36
347.5981,-53.79
347.6981,-53.89
347.7981,-53.23
347.8981,-54.08
347.9981,-54.08
348.0981,-53.32
348.1981,-53.23
348.2981,-53.51
348.3981,-54.74
348.4981,-54.55
348.5981,-53.42
348.6981,-54.27
348.7981,-55.87
348.8981,-54.83
348.9981,-53.32
349.0981,-54.27
349.1981,-55.96
349.2981,-54.64
349.3981,-54.64
349.4981,-54.17
349.5981,-54.36
349.6981,-54.17
349.7981,-55.02
349.8981,-54.36
349.9981,-54.36
350.0981,-53.7
350.1981,-52.85
350.2981,-52.67
350.3981,-53.42
350.4981,-53.79
350.5981,-53.79
350.6981,-54.74
350.7981,-54.64
350.8981,-53.42
350.9981,-53.32
351.0981,-54.08
351.1981,-53.14
351.2981,-53.51
351.3981,-54.83
351.4981,-55.11
351.5981,-54.36
351.6981,-54.64
351.7981,-54.92
351.8981,-53.61
351.9981,-54.08
352.0981,-54.36
352.1981,-54.27
352.2981,-54.17
352.3981,-53.61
352.4981,-53.04
352.5981,-53.51
352.6981,-54.64
352.7981,-55.02
352.8981,-54.17
352.9981,-53.79
353.0981,-53.04
353.1981,-53.61
353.2981,-54.83
353.3981,-53.98
353.4981,-53.04
353.5981,-53.61
353.6981,-53.89
353.7981,-54.08
353.8981,-53.7
353.9981,-53.42
354.0981,-53.14
354.1981,-53.23
354.2981,-53.14
354.3981,-53.51
354.4981,-53.61
354.5981,-54.08
354.6981,-54.36
354.7981,-55.49
354.8981,-55.02
354.9981,-54.36
355.0981,-54.36
355.1981,-54.83
355.2981,-53.79
355.3981,-52.95
355.4981,-53.89
355.5981,-54.83
355.6981,-53.79
355.7981,-54.17
355.8981,-53.98
355.9981,-52.95
356.0981,-53.51
356.1981,-53.23
356.2981,-53.61
356.3981,-52.48
356.4981,-53.32
356.5981,-54.27
356.6981,-54.17
356.7981,-53.98
356.8981,-54.64
356.9981,-53.7
357.0981,-52.67
357.1981,-52.1
357.2981,-52.76
357.3981,-52.19
357.4981,-52.38
357.5981,-52.95
357.6981,-52.67
357.7981,-52.57
357.8981,-54.36
357.9981,-53.89
358.0981,-52.48
358.1981,-52.38
358.2981,-53.32
358.3981,-53.23
358.4981,-52.67
358.5981,-52.57
358.6981,-53.98
358.7981,-53.51
358.8981,-54.27
358.9981,-54.92
359.0981,-53.61
359.1981,-53.79
359.2981,-53.32
359.3981,-53.42
359.4981,-53.51
359.5981,-54.45
359.6981,-53.42
359.7981,-54.36
359.8981,-54.08
359.9981,-54.17
360.0981,-53.61
360.1981,-53.32
360.2981,-54.92
360.3981,-56.52
360.4981,-53.7
360.5981,-52.48
360.6981,-52.76
360.7981,-51.54
360.8981,-52.01
360.9981,-52.19
361.0981,-53.42
361.1981,-54.64
361.2981,-54.45
361.3981,-54.55
361.4981,-54.92
361.5981,-53.51
361.6981,-54.08
361.7981,-54.08
361.8981,-53.32
361.9981,-54.27
362.0981,-54.45
362.1981,-54.74
362.2981,-52.67
362.3981,-52.01
362.4981,-53.04
362.5981,-54.08
362.6981,-54.36
362.7981,-54.55
362.8981,-53.32
362.9981,-52.19
363.0981,-52.48
363.1981,-53.98
363.2981,-55.11
363.3981,-55.3
363.4981,-54.27
363.5981,-53.61
363.6981,-54.55
363.7981,-53.42
363.8981,-54.45
363.9981,-55.02
364.0981,-54.08
364.1981,-53.32
364.2981,-53.23
364.3981,-51.91
364.4981,-52.29
364.5981,-54.36
364.6981,-53.32
364.7981,-53.7
364.8981,-53.42
364.9981,-53.89
365.0981,-54.83
365.1981,-54.17
365.2981,-54.55
365.3981,-55.21
365.4981,-54.83
365.5981,-52.95
365.6981,-54.08
365.7981,-54.55
365.8981,-54.36
365.9981,-55.3
366.0981,-54.36
366.1981,-53.04
366.2981,-54.08
366.3981,-54.17
366.4981,-53.89
366.5981,-54.55
366.6981,-54.64
366.7981,-55.39
366.8981,-56.9
366.9981,-55.3
367.0981,-53.42
367.1981,-53.04
367.2981,-53.04
367.3981,-52.85
367.4981,-53.32
367.5981,-53.7
367.6981,-53.98
367.7981,-54.83
367.8981,-53.61
367.9981,-54.64
368.0981,-53.79
368.1981,-53.32
368.2981,-54.64
368.3981,-53.51
368.4981,-53.89
368.5981,-55.11
368.6981,-54.83
368.7981,-53.98
368.8981,-53.79
368.9981,-53.79
369.0981,-52.95
369.1981,-53.89
369.2981,-52.85
369.3981,-53.23
369.4981,-53.14
369.5981,-54.55
369.6981,-53.79
369.7981,-53.23
369.8981,-53.14
369.9981,-54.17
370.0981,-54.55
370.1981,-52.57
370.2981,-53.04
370.3981,-53.89
370.4981,-53.61
370.5981,-54.08
370.6981,-53.7
370.7981,-53.89
370.8981,-54.64
370.9981,-54.08
371.0981,-52.85
371.1981,-52.67
371.2981,-52.38
371.3981,-53.79
371.4981,-53.79
371.5981,-53.42
371.6981,-54.36
371.7981,-54.08
371.8981,-53.42
371.9981,-55.02
372.0981,-53.79
372.1981,-53.42
372.2981,-54.55
372.3981,-53.7
372.4981,-53.51
372.5981,-53.79
372.6981,-52.67
372.7981,-51.91
372.8981,-52.19
372.9981,-53.61
373.0981,-54.17
373.1981,-53.61
373.2981,-54.27
373.3981,-54.83
373.4981,-55.3
373.5981,-56.99
373.6981,-54.92
373.7981,-54.55
373.8981,-53.51
373.9981,-53.04
374.0981,-53.23
374.1981,-53.51
374.2981,-52.95
374.3981,-53.7
374.4981,-55.11
374.5981,-54.45
374.6981,-54.45
374.7981,-52.95
374.8981,-53.04
374.9981,-53.42
375.0981,-53.61
375.1981,-53.61
375.2981,-52.67
375.3981,-54.08
375.4981,-55.68
375.5981,-55.02
375.6981,-54.45
375.7981,-54.17
375.8981,-52.48
375.9981,-52.48
376.0981,-54.45
376.1981,-55.96
376.2981,-55.21
376.3981,-54.55
376.4981,-55.3
376.5981,-54.55
376.6981,-53.04
376.7981,-52.76
376.8981,-53.23
376.9981,-53.79
377.0981,-54.36
377.1981,-53.7
377.2981,-53.42
377.3981,-54.45
377.4981,-53.61
377.5981,-52.95
377.6981,-55.87
377.7981,-54.83
377.8981,-54.36
377.9981,-54.45
378.0981,-53.14
378.1981,-53.61
378.2981,-53.98
378.3981,-52.67
378.4981,-53.14
378.5981,-54.64
378.6981,-54.64
378.7981,-53.61
378.8981,-53.23
378.9981,-53.23
379.0981,-53.51
379.1981,-54.17
379.2981,-53.79
379.3981,-53.79
379.4981,-54.45
379.5981,-54.45
379.6981,-53.89
379.7981,-54.55
379.8981,-54.55
379.9981,-55.68
380.0981,-56.15
380.1981,-54.83
380.2981,-53.61
380.3981,-53.42
380.4981,-53.89
380.5981,-54.27
380.6981,-54.36
380.7981,-54.45
380.8981,-53.98
380.9981,-53.61
381.0981,-54.83
381.1981,-53.51
381.2981,-53.89
381.3981,-54.74
381.4981,-53.51
381.5981,-52.48
381.6981,-52.57
381.7981,-53.51
381.8981,-54.55
381.9981,-53.61
382.0981,-53.79
382.1981,-53.32
382.2981,-54.55
382.3981,-53.61
382.4981,-53.14
382.5981,-54.08
382.6981,-53.7
382.7981,-53.51
382.8981,-52.38
382.9981,-52.95
383.0981,-53.32
383.1981,-53.32
383.2981,-52.95
383.3981,-53.61
383.4981,-54.64
383.5981,-55.96
383.6981,-55.39
383.7981,-55.11
383.8981,-53.98
383.9981,-54.36
384.0981,-55.39
384.1981,-55.39
384.2981,-53.14
384.3981,-53.04
384.4981,-53.42
384.5981,-53.51
384.6981,-53.98
384.7981,-54.64
384.8981,-53.79
384.9981,-55.3
385.0981,-55.49
385.1981,-54.55
385.2981,-53.14
385.3981,-53.42
385.4981,-53.04
385.5981,-53.79
385.6981,-54.17
385.7981,-54.36
385.8981,-55.68
385.9981,-56.52
386.0981,-54.27
386.1981,-52.19
386.2981,-54.27
386.3981,-55.02
386.4981,-54.74
386.5981,-54.55
386.6981,-54.17
386.7981,-53.32
386.8981,-52.19
386.9981,-52.95
387.0981,-54.55
387.1981,-54.45
387.2981,-55.02
387.3981,-55.39
387.4981,-54.83
387.5981,-54.64
387.6981,-53.42
387.7981,-53.51
387.8981,-55.49
387.9981,-55.3
388.0981,-54.83
388.1981,-54.55
388.2981,-54.83
388.3981,-53.98
388.4981,-53.61
388.5981,-53.23
388.6981,-53.61
388.7981,-53.32
388.8981,-53.79
388.9981,-53.89
389.0981,-53.61
389.1981,-53.61
389.2981,-55.02
389.3981,-54.92
389.4981,-53.51
389.5981,-52.95
389.6981,-52.95
389.7981,-52.95
389.8981,-53.32
389.9981,-53.42
390.0981,-53.42
390.1981,-54.08
390.2981,-53.7
390.3981,-53.61
390.4981,-53.98
390.5981,-53.98
390.6981,-53.7
390.7981,-52.48
390.8981,-52.95
390.9981,-54.17
391.0981,-56.34
391.1981,-54.64
391.2981,-55.3
391.3981,-54.55
391.4981,-52.76
391.5981,-52.85
391.6981,-54.64
391.7981,-54.92
391.8981,-55.02
391.9981,-54.45
392.0981,-53.61
392.1981,-52.85
392.2981,-53.7
392.3981,-54.08
392.4981,-54.36
392.5981,-54.17
392.6981,-54.74
392.7981,-55.77
392.8981,-55.49
392.9981,-55.3
393.0981,-55.11
393.1981,-54.92
393.2981,-54.17
393.3981,-54.08
393.4981,-55.02
393.5981,-53.61
393.6981,-53.98
393.7981,-55.02
393.8981,-55.3
393.9981,-54.74
394.0981,-53.79
394.1981,-55.58
394.2981,-53.61
394.3981,-53.98
394.4981,-54.36
394.5981,-53.14
394.6981,-53.51
394.7981,-54.83
394.8981,-53.79
394.9981,-53.61
395.0981,-52.95
395.1981,-52.85
395.2981,-54.17
395.3981,-53.42
395.4981,-53.51
395.5981,-53.42
395.6981,-54.36
395.7981,-53.04
395.8981,-52.95
395.9981,-53.89
396.0981,-53.51
396.1981,-53.98
396.2981,-55.21
396.3981,-54.45
396.4981,-52.85
396.5981,-53.7
396.6981,-54.74
396.7981,-54.55
396.8981,-53.89
396.9981,-52.85
397.0981,-52.85
397.1981,-53.04
397.2981,-52.85
397.3981,-53.51
397.4981,-54.83
397.5981,-54.74
397.6981,-54.45
397.7981,-55.3
397.8981,-54.92
397.9981,-53.04
398.0981,-54.27
398.1981,-55.39
398.2981,-54.83
398.3981,-54.83
398.4981,-55.02
398.5981,-55.3
398.6981,-54.55
398.7981,-54.45
398.8981,-55.96
398.9981,-55.68
399.0981,-54.74
399.1981,-54.64
399.2981,-54.36
399.3981,-53.98
399.4981,-54.36
399.5981,-54.08
399.6981,-53.98
399.7981,-53.89
399.8981,-54.64
399.9981,-53.32
400.0981,-54.55
400.1981,-54.83
400.2981,-55.21
400.3981,-56.05
400.4981,-55.02
400.5981,-54.45
400.6981,-52.95
400.7981,-53.04
400.8981,-55.58
400.9981,-54.27
401.0981,-54.55
401.1981,-55.3
401.2981,-55.39
401.3981,-54.08
401.4981,-53.42
401.5981,-54.83
401.6981,-55.11
401.7981,-52.95
401.8981,-52.95
401.9981,-54.55
402.0981,-53.61
402.1981,-53.04
402.2981,-56.05
402.3981,-54.55
402.4981,-55.77
402.5981,-55.11
402.6981,-53.89
402.7981,-53.7
402.8981,-54.08
402.9981,-53.79
403.0981,-54.74
403.1981,-53.89
403.2981,-53.32
403.3981,-54.74
403.4981,-55.58
403.5981,-54.74
403.6981,-55.3
403.7981,-55.11
403.8981,-54.45
403.9981,-54.36
404.0981,-54.08
404.1981,-53.61
404.2981,-53.42
404.3981,-52.67
404.4981,-53.7
404.5981,-54.45
404.6981,-53.98
404.7981,-54.64
404.8981,-54.45
404.9981,-53.7
405.0981,-53.23
405.1981,-53.32
405.2981,-54.74
405.3981,-55.68
405.4981,-54.74
405.5981,-53.51
405.6981,-54.55
405.7981,-54.27
405.8981,-53.98
405.9981,-55.21
406.0981,-55.96
406.1981,-54.08
406.2981,-53.14
406.3981,-53.51
406.4981,-54.36
406.5981,-53.79
406.6981,-53.32
406.7981,-53.79
406.8981,-53.89
406.9981,-55.58
407.0981,-54.17
407.1981,-53.89
407.2981,-54.64
407.3981,-54.55
407.4981,-54.17
407.5981,-53.32
407.6981,-53.14
407.7981,-53.51
407.8981,-54.08
407.9981,-53.89
408.0981,-54.27
408.1981,-54.92
408.2981,-55.21
408.3981,-54.92
408.4981,-53.42
408.5981,-54.45
408.6981,-55.21
408.7981,-53.89
408.8981,-53.7
408.9981,-54.08
409.0981,-55.58
409.1981,-53.79
409.2981,-53.89
409.3981,-53.89
409.4981,-53.89
409.5981,-53.7
409.6981,-54.55
409.7981,-54.83
409.8981,-53.98
409.9981,-53.04
410.0981,-52.57
410.1981,-53.61
410.2981,-54.64
410.3981,-54.17
410.4981,-54.27
410.5981,-54.36
410.6981,-56.05
410.7981,-55.11
410.8981,-52.85
410.9981,-53.51
411.0981,-53.42
411.1981,-52.48
411.2981,-53.98
411.3981,-53.98
411.4981,-53.42
411.5981,-53.51
411.6981,-54.17
411.7981,-54.17
411.8981,-53.98
411.9981,-53.89
412.0981,-53.7
412.1981,-52.48
412.2981,-52.57
412.3981,-53.32
412.4981,-53.42
412.5981,-53.98
412.6981,-54.27
412.7981,-53.7
412.8981,-53.23
412.9981,-54.74
413.0981,-53.23
413.1981,-52.95
413.2981,-53.79
413.3981,-53.7
413.4981,-54.45
413.5981,-54.45
413.6981,-54.27
413.7981,-53.51
413.8981,-53.51
413.9981,-53.89
414.0981,-53.61
414.1981,-53.79
414.2981,-54.17
414.3981,-54.55
414.4981,-55.96
414.5981,-55.3
414.6981,-54.36
414.7981,-53.79
414.8981,-53.7
414.9981,-53.04
415.0981,-54.45
415.1981,-54.55
415.2981,-53.04
415.3981,-53.04
415.4981,-54.83
415.5981,-54.55
415.6981,-54.36
415.7981,-55.3
415.8981,-54.92
415.9981,-54.27
416.0981,-53.61
416.1981,-54.45
416.2981,-53.42
416.3981,-52.95
416.4981,-53.42
416.5981,-54.45
416.6981,-53.51
416.7981,-53.7
416.8981,-52.67
416.9981,-53.23
417.0981,-54.55
417.1981,-55.21
417.2981,-53.32
417.3981,-53.23
417.4981,-53.61
417.5981,-53.98
417.6981,-54.45
417.7981,-54.36
417.8981,-53.61
417.9981,-54.45
418.0981,-54.64
418.1981,-54.17
418.2981,-54.27
418.3981,-54.64
418.4981,-53.89
418.5981,-53.61
418.6981,-53.98
418.7981,-53.61
418.8981,-54.17
418.9981,-54.64
419.0981,-54.83
419.1981,-54.36
419.2981,-54.74
419.3981,-55.58
419.4981,-53.98
419.5981,-53.61
419.6981,-53.14
419.7981,-53.42
419.8981,-54.17
419.9981,-56.05
420.0981,-54.45
420.1981,-54.55
420.2981,-53.98
420.3981,-53.51
420.4981,-55.11
420.5981,-55.49
420.6981,-54.64
420.7981,-53.79
420.8981,-53.23
420.9981,-54.17
421.0981,-55.11
421.1981,-54.08
421.2981,-54.17
421.3981,-55.49
421.4981,-54.64
421.5981,-54.27
421.6981,-54.45
421.7981,-52.85
421.8981,-53.32
421.9981,-54.55
422.0981,-55.68
422.1981,-55.02
422.2981,-54.64
422.3981,-53.23
422.4981,-53.89
422.5981,-53.89
422.6981,-53.51
422.7981,-54.17
422.8981,-54.64
422.9981,-55.49
423.0981,-54.27
423.1981,-54.45
423.2981,-55.11
423.3981,-55.02
423.4981,-54.74
423.5981,-53.51
423.6981,-54.83
423.7981,-54.27
423.8981,-53.79
423.9981,-53.61
424.0981,-54.17
424.1981,-54.55
424.2981,-54.55
424.3981,-53.42
424.4981,-53.7
424.5981,-55.21
424.6981,-54.64
424.7981,-52.67
424.8981,-53.32
424.9981,-54.74
425.0981,-53.79
425.1981,-53.61
425.2981,-54.08
425.3981,-54.17
425.4981,-54.45
425.5981,-54.17
425.6981,-54.92
425.7981,-53.14
425.8981,-53.79
425.9981,-54.45
426.0981,-54.27
426.1981,-53.61
426.2981,-53.42
426.3981,-53.42
426.4981,-53.79
426.5981,-54.74
426.6981,-55.02
426.7981,-53.98
426.8981,-53.61
426.9981,-53.89
427.0981,-53.61
427.1981,-53.14
427.2981,-54.36
427.3981,-54.08
427.4981,-55.21
427.5981,-55.11
427.6981,-53.61
427.7981,-53.7
427.8981,-54.08
427.9981,-53.98
428.0981,-55.02
428.1981,-54.64
428.2981,-53.42
428.3981,-53.51
428.4981,-53.51
428.5981,-54.55
428.6981,-53.42
428.7981,-53.98
428.8981,-53.7
428.9981,-53.79
429.0981,-53.89
429.1981,-54.55
429.2981,-54.27
429.3981,-53.23
429.4981,-55.3
429.5981,-53.79
429.6981,-52.95
429.7981,-54.45
429.8981,-55.21
429.9981,-54.74
430.0981,-54.83
430.1981,-54.83
430.2981,-54.45
430.3981,-54.55
430.4981,-53.23
430.5981,-53.61
430.6981,-53.89
430.7981,-54.55
430.8981,-53.7
430.9981,-53.79
431.0981,-55.21
431.1981,-54.55
431.2981,-53.79
431.3981,-55.11
431.4981,-55.39
431.5981,-54.36
431.6981,-53.98
431.7981,-55.77
431.8981,-53.79
431.9981,-53.51
432.0981,-56.52
432.1981,-54.83
432.2981,-53.32
432.3981,-53.79
432.4981,-54.45
432.5981,-55.39
432.6981,-54.45
432.7981,-54.45
432.8981,-54.55
432.9981,-53.51
433.0981,-55.49
433.1981,-55.21
433.2981,-54.55
433.3981,-54.45
433.4981,-53.98
433.5981,-53.61
433.6981,-54.83
433.7981,-53.79
433.8981,-53.51
433.9981,-53.79
434.0981,-54.08
434.1981,-54.45
434.2981,-56.43
434.3981,-55.68
434.4981,-54.17
434.5981,-53.23
434.6981,-53.61
434.7981,-53.42
434.8981,-53.7
434.9981,-53.98
435.0981,-53.04
435.1981,-53.23
435.2981,-54.08
435.3981,-54.45
435.4981,-54.83
435.5981,-55.49
435.6981,-54.27
435.7981,-53.89
435.8981,-54.55
435.9981,-55.77
436.0981,-55.3
436.1981,-53.98
436.2981,-53.89
436.3981,-54.83
436.4981,-55.11
436.5981,-55.02
436.6981,-54.17
436.7981,-52.85
436.8981,-53.61
436.9981,-54.08
437.0981,-54.36
437.1981,-54.08
437.2981,-52.48
437.3981,-53.14
437.4981,-54.17
437.5981,-54.92
437.6981,-55.39
437.7981,-53.7
437.8981,-52.67
437.9981,-53.32
438.0981,-52.48
438.1981,-52.57
438.2981,-53.98
438.3981,-55.39
438.4981,-53.79
438.5981,-52.67
438.6981,-53.23
438.7981,-53.14
438.8981,-52.57
438.9981,-52.67
439.0981,-54.36
439.1981,-55.96
439.2981,-55.58
439.3981,-53.98
439.4981,-52.57
439.5981,-53.04
439.6981,-54.36
439.7981,-55.11
439.8981,-55.49
439.9981,-56.05
440.0981,-56.24
440.1981,-54.55
440.2981,-55.77
440.3981,-55.39
440.4981,-54.27
440.5981,-53.51
440.6981,-53.98
440.7981,-53.7
440.8981,-53.32
440.9981,-53.51
441.0981,-54.27
441.1981,-54.64
441.2981,-55.39
441.3981,-54.83
441.4981,-53.79
441.5981,-55.3
441.6981,-55.39
441.7981,-53.51
441.8981,-53.04
441.9981,-54.08
442.0981,-52.29
442.1981,-53.42
442.2981,-53.32
442.3981,-54.55
442.4981,-54.55
442.5981,-54.55
442.6981,-55.49
442.7981,-54.83
442.8981,-54.36
442.9981,-55.11
443.0981,-53.7
443.1981,-52.67
443.2981,-54.83
443.3981,-55.21
443.4981,-53.61
443.5981,-54.17
443.6981,-54.27
443.7981,-53.61
443.8981,-54.45
443.9981,-55.49
444.0981,-54.27
444.1981,-53.32
444.2981,-55.02
444.3981,-54.55
444.4981,-53.79
444.5981,-54.17
444.6981,-55.39
444.7981,-54.08
444.8981,-54.64
444.9981,-54.55
445.0981,-54.27
445.1981,-55.02
445.2981,-54.17
445.3981,-53.61
445.4981,-53.98
445.5981,-53.7
445.6981,-53.32
445.7981,-55.68
445.8981,-55.11
445.9981,-53.98
446.0981,-53.98
446.1981,-54.74
446.2981,-53.79
446.3981,-54.27
446.4981,-53.42
446.5981,-53.79
446.6981,-52.95
446.7981,-52.67
446.8981,-54.74
446.9981,-55.3
447.0981,-53.98
447.1981,-53.61
447.2981,-53.32
447.3981,-55.58
447.4981,-55.58
447.5981,-55.02
447.6981,-54.92
447.7981,-55.21
447.8981,-53.98
447.9981,-54.64
448.0981,-55.21
448.1981,-53.79
448.2981,-53.32
448.3981,-53.89
448.4981,-53.42
448.5981,-52.95
448.6981,-52.67
448.7981,-53.98
448.8981,-54.64
448.9981,-54.08
449.0981,-53.98
449.1981,-53.32
449.2981,-53.51
449.3981,-54.17
449.4981,-54.83
449.5981,-53.89
449.6981,-54.64
449.7981,-54.36
449.8981,-53.23
449.9981,-54.17
450.0981,-54.08
450.1981,-54.17
450.2981,-54.36
450.3981,-54.36
450.4981,-55.11
450.5981,-55.21
450.6981,-53.7
450.7981,-53.32
450.8981,-53.04
450.9981,-52.67
451.0981,-52.85
451.1981,-54.55
451.2981,-55.58
451.3981,-54.45
451.4981,-54.45
451.5981,-54.17
451.6981,-54.27
451.7981,-53.79
451.8981,-53.98
451.9981,-53.42
452.0981,-53.98
452.1981,-53.89
452.2981,-53.89
452.3981,-55.11
452.4981,-55.39
452.5981,-55.77
452.6981,-55.11
452.7981,-54.55
452.8981,-53.79
452.9981,-55.49
453.0981,-55.21
453.1981,-54.64
453.2981,-53.42
453.3981,-54.17
453.4981,-55.21
453.5981,-53.98
453.6981,-53.14
453.7981,-54.55
453.8981,-53.61
453.9981,-52.29
454.0981,-53.23
454.1981,-52.67
454.2981,-53.89
454.3981,-53.79
454.4981,-53.23
454.5981,-52.76
454.6981,-53.14
454.7981,-53.23
454.8981,-53.32
454.9981,-53.79
455.0981,-53.42
455.1981,-53.7
455.2981,-53.89
455.3981,-54.74
455.4981,-55.39
455.5981,-54.45
455.6981,-53.7
455.7981,-54.92
455.8981,-54.64
455.9981,-54.08
456.0981,-54.83
456.1981,-55.02
456.2981,-54.27
456.3981,-54.17
456.4981,-54.17
456.5981,-54.45
456.6981,-55.3
456.7981,-56.15
456.8981,-54.17
456.9981,-55.11
457.0981,-53.89
457.1981,-53.98
457.2981,-55.02
457.3981,-55.68
457.4981,-55.58
457.5981,-53.89
457.6981,-53.61
457.7981,-53.7
457.8981,-53.98
457.9981,-53.98
458.0981,-55.3
458.1981,-53.42
458.2981,-53.51
458.3981,-54.27
458.4981,-54.55
458.5981,-53.61
458.6981,-54.08
458.7981,-53.42
458.8981,-53.04
458.9981,-52.85
459.0981,-53.04
459.1981,-53.51
459.2981,-54.27
459.3981,-54.36
459.4981,-55.3
459.5981,-55.3
459.6981,-54.64
459.7981,-55.68
459.8981,-53.61
459.9981,-52.85
460.0981,-53.04
460.1981,-53.04
460.2981,-54.08
460.3981,-53.89
460.4981,-53.98
460.5981,-53.79
460.6981,-52.85
460.7981,-53.79
460.8981,-54.83
460.9981,-54.55
461.0981,-54.27
461.1981,-54.36
461.2981,-54.17
461.3981,-53.04
461.4981,-53.23
461.5981,-54.45
461.6981,-56.43
461.7981,-55.68
461.8981,-54.36
461.9981,-53.61
462.0981,-53.79
462.1981,-55.77
462.2981,-54.36
462.3981,-53.89
462.4981,-53.89
462.5981,-54.17
462.6981,-54.55
462.7981,-54.83
462.8981,-54.64
462.9981,-54.08
463.0981,-53.61
463.1981,-52.95
463.2981,-53.89
463.3981,-54.92
463.4981,-54.36
463.5981,-54.45
463.6981,-54.17
463.7981,-53.32
463.8981,-54.45
463.9981,-54.45
464.0981,-54.17
464.1981,-53.32
464.2981,-52.67
464.3981,-54.36
464.4981,-54.74
464.5981,-54.64
464.6981,-55.77
464.7981,-53.7
464.8981,-54.17
464.9981,-54.64
465.0981,-54.55
465.1981,-55.87
465.2981,-54.74
465.3981,-53.42
465.4981,-54.08
465.5981,-53.51
465.6981,-54.64
465.7981,-54.17
465.8981,-54.17
465.9981,-54.08
466.0981,-53.51
466.1981,-53.61
466.2981,-53.98
466.3981,-53.98
466.4981,-54.55
466.5981,-54.45
466.6981,-55.11
466.7981,-54.45
466.8981,-54.08
466.9981,-54.92
467.0981,-55.11
467.1981,-55.49
467.2981,-54.45
467.3981,-54.27
467.4981,-53.04
467.5981,-54.45
467.6981,-53.42
467.7981,-52.29
467.8981,-52.1
467.9981,-53.61
468.0981,-54.64
468.1981,-54.08
468.2981,-53.98
468.3981,-54.45
468.4981,-53.89
468.5981,-55.02
468.6981,-54.27
468.7981,-53.7
468.8981,-54.27
468.9981,-54.17
469.0981,-54.64
469.1981,-54.36
469.2981,-53.79
469.3981,-54.08
469.4981,-54.64
469.5981,-53.79
469.6981,-53.98
469.7981,-54.55
469.8981,-54.27
469.9981,-54.36
470.0981,-53.98
470.1981,-53.89
470.2981,-54.45
470.3981,-53.98
470.4981,-52.01
470.5981,-52.57
470.6981,-53.89
470.7981,-53.7
470.8981,-55.21
470.9981,-53.79
471.0981,-52.95
471.1981,-53.42
471.2981,-54.55
471.3981,-54.74
471.4981,-53.89
471.5981,-53.79
471.6981,-54.45
471.7981,-53.98
471.8981,-53.23
471.9981,-55.11
472.0981,-55.68
472.1981,-54.08
472.2981,-53.98
472.3981,-54.83
472.4981,-54.83
472.5981,-56.43
472.6981,-55.11
472.7981,-54.55
472.8981,-54.36
472.9981,-55.3
473.0981,-53.79
473.1981,-53.89
473.2981,-53.61
473.3981,-52.85
473.4981,-53.7
473.5981,-54.36
473.6981,-55.3
473.7981,-54.92
473.8981,-53.79
473.9981,-52.85
474.0981,-53.89
474.1981,-54.55
474.2981,-54.36
474.3981,-52.57
474.4981,-53.89
474.5981,-55.96
474.6981,-54.08
474.7981,-52.95
474.8981,-51.72
474.9981,-53.14
475.0981,-53.42
475.1981,-52.76
475.2981,-54.74
475.3981,-54.64
475.4981,-55.02
475.5981,-54.08
475.6981,-53.42
475.7981,-54.17
475.8981,-54.74
475.9981,-54.55
476.0981,-53.51
476.1981,-54.55
476.2981,-54.55
476.3981,-53.51
476.4981,-54.17
476.5981,-52.48
476.6981,-53.32
476.7981,-53.7
476.8981,-53.89
476.9981,-53.32
477.0981,-55.39
477.1981,-53.7
477.2981,-54.83
477.3981,-54.17
477.4981,-53.23
477.5981,-52.95
477.6981,-53.04
477.7981,-53.61
477.8981,-53.7
477.9981,-53.7
478.0981,-52.85
478.1981,-52.95
478.2981,-55.3
478.3981,-55.77
478.4981,-54.45
478.5981,-54.17
478.6981,-53.42
478.7981,-53.98
478.8981,-54.08
478.9981,-53.7
479.0981,-53.61
479.1981,-54.27
479.2981,-54.08
479.3981,-54.27
479.4981,-55.02
479.5981,-56.43
479.6981,-55.11
479.7981,-55.87
479.8981,-54.45
479.9981,-52.95
480.0981,-53.89
480.1981,-55.3
480.2981,-54.83
480.3981,-55.11
480.4981,-54.36
480.5981,-54.64
480.6981,-53.79
480.7981,-54.45
480.8981,-54.36
480.9981,-53.7
481.0981,-55.21
481.1981,-54.55
481.2981,-52.95
481.3981,-54.08
481.4981,-53.89
481.5981,-54.45
481.6981,-54.92
481.7981,-55.11
481.8981,-53.79
481.9981,-53.98
482.0981,-55.39
482.1981,-55.02
482.2981,-54.92
482.3981,-54.17
482.4981,-54.27
482.5981,-55.21
482.6981,-54.74
482.7981,-55.21
482.8981,-55.49
482.9981,-54.55
483.0981,-56.34
483.1981,-55.87
483.2981,-54.55
483.3981,-55.11
483.4981,-54.08
483.5981,-54.55
483.6981,-54.64
483.7981,-54.55
483.8981,-54.55
483.9981,-54.08
484.0981,-54.36
484.1981,-54.27
484.2981,-53.89
484.3981,-53.79
484.4981,-54.74
484.5981,-53.79
484.6981,-53.61
484.7981,-54.08
484.8981,-53.79
484.9981,-54.36
485.0981,-53.42
485.1981,-53.7
485.2981,-54.92
485.3981,-54.17
485.4981,-53.7
485.5981,-53.51
485.6981,-52.29
485.7981,-53.89
485.8981,-55.68
485.9981,-54.74
486.0981,-53.79
486.1981,-54.55
486.2981,-55.58
486.3981,-54.55
486.4981,-54.45
486.5981,-54.17
486.6981,-53.61
486.7981,-53.51
486.8981,-54.64
486.9981,-55.77
487.0981,-55.39
487.1981,-54.27
487.2981,-54.55
487.3981,-57.18
487.4981,-54.45
487.5981,-53.14
487.6981,-53.04
487.7981,-52.85
487.8981,-53.79
487.9981,-54.17
488.0981,-54.36
488.1981,-53.7
488.2981,-52.95
488.3981,-54.64
488.4981,-54.08
488.5981,-53.04
488.6981,-53.04
488.7981,-52.95
488.8981,-53.14
488.9981,-53.23
489.0981,-52.48
489.1981,-53.42
489.2981,-54.27
489.3981,-54.45
489.4981,-55.3
489.5981,-55.11
489.6981,-55.11
489.7981,-53.7
489.8981,-53.89
489.9981,-54.64
490.0981,-54.83
490.1981,-56.43
490.2981,-55.58
490.3981,-54.36
490.4981,-54.74
490.5981,-55.87
490.6981,-55.87
490.7981,-55.21
490.8981,-55.02
490.9981,-57.09
491.8981,-82.41
491.9981,-55.02
492.0981,-54.36
492.1981,-53.98
492.2981,-54.17
492.3981,-55.49
492.4981,-55.11
492.5981,-53.7
492.6981,-52.57
492.7981,-53.42
492.8981,-53.23
492.9981,-53.04
493.0981,-52.76
493.1981,-53.98
493.2981,-53.32
493.3981,-52.85
493.4981,-52.85
493.5981,-53.79
493.6981,-54.08
493.7981,-53.32
493.8981,-52.48
493.9981,-53.42
494.0981,-53.98
494.1981,-54.08
494.2981,-54.27
494.3981,-53.89
494.4981,-54.45
494.5981,-55.77
494.6981,-55.87
494.7981,-55.39
494.8981,-53.42
494.9981,-54.83
495.0981,-54.55
495.1981,-54.74
495.2981,-55.02
495.3981,-54.45
495.4981,-56.9
495.5981,-55.49
495.6981,-54.27
495.7981,-52.95
495.8981,-53.51
495.9981,-54.92
496.0981,-54.92
496.1981,-54.92
496.2981,-53.51
496.3981,-52.76
496.4981,-53.04
496.5981,-53.98
496.6981,-54.92
496.7981,-56.05
496.8981,-54.08
496.9981,-53.79
497.0981,-53.89
497.1981,-53.61
497.2981,-54.36
497.3981,-55.58
497.4981,-54.17
497.5981,-53.7
497.6981,-53.42
497.7981,-53.7
497.8981,-54.17
497.9981,-54.92
498.0981,-53.51
498.1981,-54.27
498.2981,-54.36
498.3981,-55.02
498.4981,-55.21
498.5981,-53.98
498.6981,-53.51
498.7981,-53.89
498.8981,-54.83
498.9981,-53.98
499.0981,-53.98
499.1981,-54.08
499.2981,-54.74
499.3981,-55.39
499.4981,-54.92
499.5981,-54.27
499.6981,-53.89
499.7981,-52.76
499.8981,-53.14
499.9981,-53.42
500.0981,-54.27
500.1981,-53.04
500.2981,-53.23
500.3981,-54.36
500.4981,-54.64
500.5981,-54.64
500.6981,-53.89
500.7981,-54.45
500.8981,-54.36
500.9981,-53.42
501.0981,-53.7
501.1981,-53.98
501.2981,-53.32
501.3981,-53.98
501.4981,-53.61
501.5981,-53.04
501.6981,-54.92
501.7981,-56.05
501.8981,-53.89
501.9981,-55.11
502.0981,-55.39
502.1981,-55.58
502.2981,-55.02
502.3981,-53.79
502.4981,-53.98
502.5981,-54.45
502.6981,-53.14
502.7981,-53.32
502.8981,-53.32
502.9981,-52.76
503.0981,-52.57
503.1981,-52.01
503.2981,-53.04
503.3981,-53.79
503.4981,-53.98
503.5981,-54.08
503.6981,-53.32
503.7981,-54.74
503.8981,-54.08
503.9981,-53.61
504.0981,-53.98
504.1981,-54.55
504.2981,-53.7
504.3981,-53.98
504.4981,-53.79
504.5981,-53.04
504.6981,-53.61
504.7981,-53.51
504.8981,-54.36
504.9981,-54.74
505.0981,-55.58
505.1981,-54.36
505.2981,-53.7
505.3981,-54.36
505.4981,-54.36
505.5981,-54.92
505.6981,-54.92
505.7981,-54.36
505.8981,-55.11
505.9981,-54.64
506.0981,-54.83
506.1981,-53.98
506.2981,-53.79
506.3981,-53.14
506.4981,-53.7
506.5981,-53.89
506.6981,-53.98
506.7981,-55.58
506.8981,-54.36
506.9981,-53.79
507.0981,-54.27
507.1981,-53.51
507.2981,-52.85
507.3981,-53.98
507.4981,-54.83
507.5981,-53.32
507.6981,-52.57
507.7981,-53.98
507.8981,-55.11
507.9981,-54.36
508.0981,-54.92
508.1981,-54.08
508.2981,-54.27
508.3981,-54.83
508.4981,-54.36
508.5981,-54.92
508.6981,-54.08
508.7981,-53.61
508.8981,-53.7
508.9981,-53.23
509.0981,-54.27
509.1981,-54.45
509.2981,-53.79
509.3981,-53.61
509.4981,-54.08
509.5981,-53.61
509.6981,-53.61
509.7981,-53.23
509.8981,-52.1
509.9981,-52.1
510.0981,-52.1
510.1981,-53.89
510.2981,-53.7
510.3981,-53.23
510.4981,-53.23
510.5981,-53.32
510.6981,-53.61
510.7981,-53.79
510.8981,-53.51
510.9981,-54.17
511.0981,-53.14
511.1981,-53.7
511.2981,-55.87
511.3981,-55.3
511.4981,-53.51
511.5981,-52.85
511.6981,-53.7
511.7981,-53.98
511.8981,-53.79
511.9981,-53.98
512.0981,-54.36
512.1981,-55.21
512.2981,-54.17
512.3981,-54.36
512.4981,-55.3
512.5981,-55.21
512.6981,-55.21
512.7981,-53.51
512.8981,-53.04
512.9981,-53.98
513.0981,-54.55
513.1981,-53.32
513.2981,-52.95
513.3981,-54.08
513.4981,-53.79
513.5981,-53.7
513.6981,-52.29
513.7981,-52.57
513.8981,-53.51
513.9981,-52.1
514.0981,-51.91
514.1981,-52.29
514.2981,-52.85
514.3981,-53.04
514.4981,-53.32
514.5981,-54.45
514.6981,-54.92
514.7981,-56.15
514.8981,-53.89
514.9981,-52.85
515.0981,-54.64
515.1981,-54.55
515.2981,-55.11
515.3981,-54.55
515.4981,-53.98
515.5981,-53.7
515.6981,-54.36
515.7981,-55.3
515.8981,-54.64
515.9981,-53.98
516.0981,-53.51
516.1981,-53.98
516.2981,-52.95
516.3981,-52.95
516.4981,-52.19
516.5981,-53.42
516.6981,-53.32
516.7981,-52.48
516.8981,-52.85
516.9981,-53.79
517.0981,-52.57
517.1981,-52.67
517.2981,-52.76
517.3981,-51.82
517.4981,-51.91
517.5981,-52.48
517.6981,-53.14
517.7981,-54.08
517.8981,-54.36
517.9981,-52.85
518.0981,-52.76
518.1981,-53.42
518.2981,-54.17
518.3981,-54.55
518.4981,-54.36
518.5981,-54.64
518.6981,-54.64
518.7981,-54.45
518.8981,-55.39
518.9981,-55.68
519.0981,-54.45
519.1981,-54.08
519.2981,-54.17
519.3981,-55.21
519.4981,-54.27
519.5981,-54.92
519.6981,-55.49
519.7981,-53.89
519.8981,-53.42
519.9981,-53.89
520.0981,-52.85
520.1981,-54.27
520.2981,-53.51
520.3981,-53.04
520.4981,-54.83
520.5981,-53.51
520.6981,-52.85
520.7981,-53.23
520.8981,-53.51
520.9981,-51.82
521.0981,-52.29
521.1981,-53.32
521.2981,-53.42
521.3981,-52.57
521.4981,-52.76
521.5981,-54.17
521.6981,-54.17
521.7981,-53.23
521.8981,-52.57
521.9981,-53.14
522.0981,-54.08
522.1981,-54.08
522.2981,-54.45
522.3981,-53.42
522.4981,-54.08
522.5981,-55.02
522.6981,-55.3
522.7981,-55.49
522.8981,-54.83
522.9981,-53.42
523.0981,-52.57
523.1981,-53.32
523.2981,-55.02
523.3981,-54.74
523.4981,-53.51
523.5981,-52.38
523.6981,-52.76
523.7981,-53.51
523.8981,-53.98
523.9981,-53.51
524.0981,-53.51
524.1981,-53.98
524.2981,-54.27
524.3981,-53.89
524.4981,-52.57
524.5981,-52.95
524.6981,-53.61
524.7981,-54.74
524.8981,-55.87
524.9981,-54.27
525.0981,-54.17
525.1981,-53.23
525.2981,-54.27
525.3981,-54.36
525.4981,-54.08
525.5981,-54.08
525.6981,-53.98
525.7981,-53.98
525.8981,-53.42
525.9981,-53.51
526.0981,-54.64
526.1981,-53.89
526.2981,-53.23
526.3981,-52.85
526.4981,-53.23
526.5981,-52.95
526.6981,-53.7
526.7981,-54.55
526.8981,-53.32
526.9981,-53.7
527.0981,-53.89
527.1981,-53.42
527.2981,-53.61
527.3981,-55.21
527.4981,-54.36
527.5981,-53.23
527.6981,-52.57
527.7981,-52.67
527.8981,-53.04
527.9981,-53.61
528.0981,-53.04
528.1981,-53.23
528.2981,-52.76
528.3981,-52.76
528.4981,-53.42
528.5981,-52.57
528.6981,-53.14
528.7981,-54.27
528.8981,-53.89
528.9981,-52.95
529.0981,-53.61
529.1981,-53.79
529.2981,-53.7
529.3981,-53.04
529.4981,-53.32
529.5981,-54.27
529.6981,-53.42
529.7981,-53.79
529.8981,-53.89
529.9981,-53.23
530.0981,-52.57
530.1981,-55.11
530.2981,-54.64
530.3981,-53.32
530.4981,-53.23
530.5981,-54.36
530.6981,-53.98
530.7981,-54.36
530.8981,-53.98
530.9981,-53.23
531.0981,-53.23
531.1981,-53.7
531.2981,-53.23
531.3981,-52.57
531.4981,-53.32
531.5981,-53.51
531.6981,-53.7
531.7981,-54.17
531.8981,-54.36
531.9981,-54.83
532.0981,-54.36
532.1981,-52.67
532.2981,-53.98
532.3981,-53.79
532.4981,-54.83
532.5981,-54.17
532.6981,-53.89
532.7981,-54.27
532.8981,-53.51
532.9981,-55.39
533.0981,-55.39
533.1981,-55.39
533.2981,-54.45
533.3981,-52.38
533.4981,-53.04
533.5981,-53.7
533.6981,-53.04
533.7981,-52.1
533.8981,-51.54
533.9981,-51.82
534.0981,-52.29
534.1981,-52.29
534.2981,-53.7
534.3981,-53.04
534.4981,-52.48
534.5981,-52.95
534.6981,-53.23
534.7981,-53.23
534.8981,-53.42
534.9981,-52.38
535.0981,-52.29
535.1981,-53.51
535.2981,-52.57
535.3981,-53.61
535.4981,-54.08
535.5981,-52.85
535.6981,-54.27
535.7981,-55.58
535.8981,-55.11
535.9981,-55.87
536.0981,-57.09
536.1981,-54.55
536.2981,-53.14
536.3981,-53.32
536.4981,-55.58
536.5981,-54.17
536.6981,-54.45
536.7981,-54.55
536.8981,-53.51
536.9981,-52.76
537.0981,-54.74
537.1981,-53.51
537.2981,-53.32
537.3981,-52.01
537.4981,-51.54
537.5981,-51.44
537.6981,-51.35
537.7981,-51.63
537.8981,-52.19
537.9981,-50.97
538.0981,-52.29
538.1981,-53.14
538.2981,-52.29
538.3981,-52.38
538.4981,-53.32
538.5981,-53.51
538.6981,-53.79
538.7981,-52.57
538.8981,-53.04
538.9981,-53.51
539.0981,-52.38
539.1981,-53.32
539.2981,-53.7
539.3981,-53.42
539.4981,-53.51
539.5981,-54.08
539.6981,-54.17
539.7981,-53.89
539.8981,-53.42
539.9981,-53.89
540.0981,-54.55
540.1981,-54.36
540.2981,-55.11
540.3981,-53.51
540.4981,-53.04
540.5981,-54.17
540.6981,-54.17
540.7981,-53.7
540.8981,-54.36
540.9981,-53.42
541.0981,-52.01
541.1981,-52.95
541.2981,-51.72
541.3981,-49.75
541.4981,-51.63
541.5981,-52.38
541.6981,-53.51
541.7981,-51.91
541.8981,-52.38
541.9981,-51.63
542.0981,-51.72
542.1981,-52.76
542.2981,-54.17
542.3981,-53.51
542.4981,-53.32
542.5981,-54.27
542.6981,-54.45
542.7981,-54.36
542.8981,-54.83
542.9981,-54.74
543.0981,-54.74
543.1981,-53.04
543.2981,-53.23
543.3981,-54.74
543.4981,-54.36
543.5981,-53.98
543.6981,-55.21
543.7981,-53.79
543.8981,-53.14
543.9981,-53.42
544.0981,-53.14
544.1981,-52.67
544.2981,-53.98
544.3981,-53.42
544.4981,-53.98
544.5981,-54.27
544.6981,-53.98
544.7981,-53.04
544.8981,-52.76
544.9981,-53.42
545.0981,-52.38
545.1981,-53.7
545.2981,-54.45
545.3981,-54.74
545.4981,-53.61
545.5981,-54.45
545.6981,-54.17
545.7981,-53.04
545.8981,-51.82
545.9981,-53.04
546.0981,-53.23
546.1981,-52.67
546.2981,-52.38
546.3981,-53.14
546.4981,-53.89
546.5981,-54.55
546.6981,-54.45
546.7981,-53.32
546.8981,-53.98
546.9981,-54.45
547.0981,-53.7
547.1981,-53.32
547.2981,-54.36
547.3981,-55.49
547.4981,-54.08
547.5981,-53.79
547.6981,-53.51
547.7981,-53.42
547.8981,-54.27
547.9981,-53.32
548.0981,-52.67
548.1981,-54.17
548.2981,-53.14
548.3981,-53.14
548.4981,-52.57
548.5981,-53.98
548.6981,-53.79
548.7981,-52.67
548.8981,-54.17
548.9981,-53.51
549.0981,-53.98
549.1981,-54.83
549.2981,-54.64
549.3981,-53.98
549.4981,-53.32
549.5981,-52.1
549.6981,-53.61
549.7981,-53.98
549.8981,-54.08
549.9981,-54.17
550.0981,-52.85
550.1981,-54.08
550.2981,-53.89
550.3981,-53.89
550.4981,-53.79
550.5981,-53.32
550.6981,-52.01
550.7981,-53.51
550.8981,-52.19
550.9981,-52.57
551.0981,-54.27
551.1981,-55.3
551.2981,-53.04
551.3981,-52.67
551.4981,-52.76
551.5981,-52.57
551.6981,-52.57
551.7981,-53.23
551.8981,-54.17
551.9981,-52.95
552.0981,-54.36
552.1981,-54.64
552.2981,-54.55
552.3981,-54.45
552.4981,-53.23
552.5981,-53.79
552.6981,-54.55
552.7981,-54.36
552.8981,-53.04
552.9981,-52.67
553.0981,-52.01
553.1981,-52.95
553.2981,-54.64
553.3981,-54.17
553.4981,-53.7
553.5981,-53.61
553.6981,-53.98
553.7981,-53.23
553.8981,-54.17
553.9981,-53.23
554.0981,-53.7
554.1981,-53.23
554.2981,-53.89
554.3981,-53.42
554.4981,-51.82
554.5981,-52.01
554.6981,-52.57
554.7981,-53.79
554.8981,-53.98
554.9981,-54.83
555.0981,-53.32
555.1981,-51.63
555.2981,-51.54
555.3981,-51.44
555.4981,-52.48
555.5981,-51.63
555.6981,-51.07
555.7981,-51.25
555.8981,-51.82
555.9981,-52.57
556.0981,-52.29
556.1981,-51.82
556.2981,-53.14
556.3981,-53.98
556.4981,-53.98
556.5981,-53.51
556.6981,-54.17
556.7981,-53.79
556.8981,-54.45
556.9981,-54.36
557.0981,-55.11
557.1981,-55.02
557.2981,-54.17
557.3981,-54.92
557.4981,-53.14
557.5981,-53.7
557.6981,-53.14
557.7981,-51.25
557.8981,-50.88
557.9981,-52.57
558.0981,-52.19
558.1981,-52.38
558.2981,-52.48
558.3981,-52.57
558.4981,-51.82
558.5981,-52.19
558.6981,-53.04
558.7981,-52.67
558.8981,-53.61
558.9981,-53.23
559.0981,-52.29
559.1981,-52.76
559.2981,-51.82
559.3981,-52.48
559.4981,-52.57
559.5981,-53.14
559.6981,-53.79
559.7981,-52.57
559.8981,-52.29
559.9981,-52.95
560.0981,-53.23
560.1981,-53.51
560.2981,-53.23
560.3981,-55.3
560.4981,-55.02
560.5981,-53.98
560.6981,-54.55
560.7981,-55.39
560.8981,-52.95
560.9981,-53.14
561.0981,-53.89
561.1981,-53.32
561.2981,-53.14
561.3981,-52.67
561.4981,-52.95
561.5981,-53.14
561.6981,-53.42
561.7981,-53.79
561.8981,-52.67
561.9981,-52.29
562.0981,-53.32
562.1981,-54.55
562.2981,-52.85
562.3981,-52.95
562.4981,-52.76
562.5981,-51.63
562.6981,-51.35
562.7981,-52.57
562.8981,-55.11
562.9981,-53.98
563.0981,-54.17
563.1981,-54.83
563.2981,-53.61
563.3981,-54.36
563.4981,-54.45
563.5981,-54.64
563.6981,-54.92
563.7981,-53.7
563.8981,-53.7
563.9981,-54.74
564.0981,-54.45
564.1981,-55.02
564.2981,-54.17
564.3981,-52.1
564.4981,-51.82
564.5981,-52.67
564.6981,-52.29
564.7981,-51.44
564.8981,-53.14
564.9981,-52.01
565.0981,-52.38
565.1981,-53.79
565.2981,-53.04
565.3981,-52.67
565.4981,-53.04
565.5981,-52.67
565.6981,-52.48
565.7981,-52.1
565.8981,-51.91
565.9981,-52.85
566.0981,-53.14
566.1981,-52.19
566.2981,-52.48
566.3981,-53.04
566.4981,-52.48
566.5981,-53.23
566.6981,-54.36
566.7981,-53.32
566.8981,-54.92
566.9981,-54.64
567.0981,-52.95
567.1981,-53.51
567.2981,-54.27
567.3981,-53.89
567.4981,-53.42
567.5981,-53.23
567.6981,-53.7
567.7981,-52.85
567.8981,-52.67
567.9981,-54.36
568.0981,-54.55
568.1981,-53.23
568.2981,-52.85
568.3981,-51.91
568.4981,-50.97
568.5981,-51.54
568.6981,-51.91
568.7981,-51.44
568.8981,-53.14
568.9981,-52.29
569.0981,-52.85
569.1981,-53.61
569.2981,-51.91
569.3981,-52.48
569.4981,-53.98
569.5981,-53.61
569.6981,-53.32
569.7981,-53.61
569.8981,-53.14
569.9981,-53.98
570.0981,-53.61
570.1981,-53.7
570.2981,-53.23
570.3981,-52.19
570.4981,-52.95
570.5981,-53.51
570.6981,-53.79
570.7981,-52.95
570.8981,-55.58
570.9981,-54.27
571.0981,-54.08
571.1981,-54.55
571.2981,-54.08
571.3981,-53.89
571.4981,-52.57
571.5981,-52.85
571.6981,-51.44
571.7981,-52.29
571.8981,-51.82
571.9981,-51.63
572.0981,-50.59
572.1981,-50.5
572.2981,-50.5
572.3981,-51.35
572.4981,-52.38
572.5981,-52.95
572.6981,-51.91
572.7981,-53.7
572.8981,-53.32
572.9981,-53.7
573.0981,-53.98
573.1981,-52.95
573.2981,-52.1
573.3981,-53.32
573.4981,-53.14
573.5981,-52.85
573.6981,-52.85
573.7981,-53.23
573.8981,-52.57
573.9981,-52.57
574.0981,-52.1
574.1981,-52.76
574.2981,-53.42
574.3981,-53.89
574.4981,-53.42
574.5981,-52.29
574.6981,-53.14
574.7981,-53.79
574.8981,-53.14
574.9981,-52.85
575.0981,-53.32
575.1981,-52.29
575.2981,-52.29
575.3981,-52.38
575.4981,-52.95
575.5981,-53.51
575.6981,-51.82
575.7981,-50.41
575.8981,-52.48
575.9981,-52.95
576.0981,-51.07
576.1981,-51.44
576.2981,-51.54
576.3981,-51.54
576.4981,-52.85
576.5981,-51.44
576.6981,-51.63
576.7981,-53.32
576.8981,-52.01
576.9981,-52.19
577.0981,-51.72
577.1981,-50.69
577.2981,-52.67
577.3981,-52.67
577.4981,-52.19
577.5981,-52.57
577.6981,-53.23
577.7981,-53.14
577.8981,-53.04
577.9981,-52.85
578.0981,-53.42
578.1981,-53.14
578.2981,-53.79
578.3981,-53.61
578.4981,-52.76
578.5981,-53.7
578.6981,-54.83
578.7981,-53.7
578.8981,-53.04
578.9981,-53.51
579.0981,-53.32
579.1981,-52.48
579.2981,-53.61
579.3981,-55.3
579.4981,-54.45
579.5981,-52.38
579.6981,-52.57
579.7981,-52.76
579.8981,-52.76
579.9981,-53.04
580.0981,-51.82
580.1981,-51.82
580.2981,-51.25
580.3981,-50.78
580.4981,-51.44
580.5981,-51.44
580.6981,-52.19
580.7981,-53.89
580.8981,-53.23
580.9981,-52.29
581.0981,-51.54
581.1981,-51.16
581.2981,-51.35
581.3981,-52.38
581.4981,-52.38
581.5981,-52.38
581.6981,-52.67
581.7981,-53.32
581.8981,-53.7
581.9981,-52.57
582.0981,-53.14
582.1981,-52.38
582.2981,-53.04
582.3981,-53.32
582.4981,-52.95
582.5981,-52.48
582.6981,-52.76
582.7981,-52.1
582.8981,-53.23
582.9981,-53.51
583.0981,-54.17
583.1981,-53.51
583.2981,-52.29
583.3981,-53.61
583.4981,-52.85
583.5981,-52.67
583.6981,-54.45
583.7981,-54.36
583.8981,-53.61
583.9981,-53.7
584.0981,-52.76
584.1981,-52.76
584.2981,-53.61
584.3981,-53.7
584.4981,-52.85
584.5981,-53.04
584.6981,-51.82
584.7981,-51.35
584.8981,-52.38
584.9981,-52.48
585.0981,-52.48
585.1981,-52.01
585.2981,-51.44
585.3981,-51.54
585.4981,-50.97
585.5981,-51.63
585.6981,-52.19
585.7981,-51.35
585.8981,-52.1
585.9981,-51.16
586.0981,-50.88
586.1981,-51.16
586.2981,-51.44
586.3981,-52.29
586.4981,-52.19
586.5981,-52.57
586.6981,-52.85
586.7981,-53.42
586.8981,-53.32
586.9981,-53.7
587.0981,-54.45
587.1981,-53.79
587.2981,-53.51
587.3981,-52.76
587.4981,-52.1
587.5981,-52.48
587.6981,-52.48
587.7981,-52.76
587.8981,-53.32
587.9981,-52.38
588.0981,-51.54
588.1981,-52.01
588.2981,-53.42
588.3981,-52.57
588.4981,-51.35
588.5981,-51.16
588.6981,-52.19
588.7981,-51.35
588.8981,-51.82
588.9981,-52.29
589.0981,-51.16
589.1981,-51.25
589.2981,-51.35
589.3981,-50.22
589.4981,-51.54
589.5981,-52.01
589.6981,-51.63
589.7981,-50.97
589.8981,-51.44
589.9981,-50.97
590.0981,-50.31
590.1981,-50.59
590.2981,-51.16
590.3981,-52.38
590.4981,-52.85
590.5981,-53.98
590.6981,-53.7
590.7981,-52.67
590.8981,-52.95
590.9981,-53.98
591.0981,-55.87
591.1981,-54.92
591.2981,-54.45
591.3981,-52.48
591.4981,-53.51
591.5981,-52.76
591.6981,-52.95
591.7981,-53.51
591.8981,-52.76
591.9981,-53.23
592.0981,-51.91
592.1981,-51.63
592.2981,-52.48
592.3981,-51.91
592.4981,-51.35
592.5981,-51.54
592.6981,-50.5
592.7981,-50.5
592.8981,-52.38
592.9981,-51.54
593.0981,-50.78
593.1981,-52.38
593.2981,-52.67
593.3981,-52.76
593.4981,-51.91
593.5981,-51.44
593.6981,-50.41
593.7981,-51.16
593.8981,-51.25
593.9981,-52.1
594.0981,-52.57
594.1981,-51.63
594.2981,-52.76
594.3981,-52.57
594.4981,-52.48
594.5981,-52.76
594.6981,-51.82
594.7981,-51.63
594.8981,-52.95
594.9981,-53.14
595.0981,-51.72
595.1981,-52.1
595.2981,-52.38
595.3981,-53.7
595.4981,-53.61
595.5981,-52.85
595.6981,-51.91
595.7981,-52.01
595.8981,-52.57
595.9981,-52.85
596.0981,-52.1
596.1981,-52.76
596.2981,-51.54
596.3981,-50.97
596.4981,-50.22
596.5981,-51.35
596.6981,-52.29
596.7981,-52.29
596.8981,-52.1
596.9981,-51.72
597.0981,-51.54
597.1981,-52.01
597.2981,-52.38
597.3981,-52.48
597.4981,-51.63
597.5981,-51.25
597.6981,-52.57
597.7981,-52.38
597.8981,-52.48
597.9981,-50.97
598.0981,-50.97
598.1981,-52.38
598.2981,-52.76
598.3981,-52.85
598.4981,-52.95
598.5981,-52.76
598.6981,-52.38
598.7981,-52.01
598.8981,-52.67
598.9981,-53.14
599.0981,-52.1
599.1981,-52.85
599.2981,-53.04
599.3981,-53.04
599.4981,-53.61
599.5981,-52.67
599.6981,-53.14
599.7981,-52.38
599.8981,-52.38
599.9981,-52.29
600.0981,-50.88
600.1981,-50.78
600.2981,-52.01
600.3981,-51.44
600.4981,-52.01
600.5981,-52.48
600.6981,-52.38
600.7981,-51.72
600.8981,-51.44
600.9981,-52.01
601.0981,-52.29
601.1981,-52.38
601.2981,-52.01
601.3981,-52.38
601.4981,-52.1
601.5981,-51.63
601.6981,-51.16
601.7981,-51.07
601.8981,-51.54
601.9981,-52.01
602.0981,-52.57
602.1981,-50.69
602.2981,-52.19
602.3981,-52.48
602.4981,-51.44
602.5981,-52.57
602.6981,-52.29
602.7981,-52.48
602.8981,-52.85
602.9981,-52.57
603.0981,-53.32
603.1981,-52.95
603.2981,-52.1
603.3981,-53.61
603.4981,-54.17
603.5981,-53.32
603.6981,-53.98
603.7981,-52.85
603.8981,-52.95
603.9981,-53.79
604.0981,-52.38
604.1981,-52.29
604.2981,-53.51
604.3981,-51.91
604.4981,-51.72
604.5981,-51.16
604.6981,-51.82
604.7981,-52.67
604.8981,-52.95
604.9981,-52.76
605.0981,-52.1
605.1981,-51.44
605.2981,-52.48
605.3981,-52.1
605.4981,-51.82
605.5981,-51.35
605.6981,-52.1
605.7981,-52.38
605.8981,-51.44
605.9981,-51.07
606.0981,-51.72
606.1981,-51.35
606.2981,-50.97
606.3981,-51.72
606.4981,-51.72
606.5981,-52.19
606.6981,-51.16
606.7981,-52.1
606.8981,-52.19
606.9981,-52.01
607.0981,-51.54
607.1981,-52.01
607.2981,-52.1
607.3981,-52.95
607.4981,-52.95
607.5981,-54.08
607.6981,-55.11
607.7981,-54.83
607.8981,-54.55
607.9981,-53.98
608.0981,-53.79
608.1981,-51.54
608.2981,-51.63
608.3981,-53.04
608.4981,-53.14
608.5981,-51.44
608.6981,-50.97
608.7981,-51.82
608.8981,-51.91
608.9981,-51.82
609.0981,-52.85
609.1981,-52.76
609.2981,-50.31
609.3981,-50.31
609.4981,-52.38
609.5981,-50.78
609.6981,-51.54
609.7981,-52.1
609.8981,-52.48
609.9981,-54.55
610.0981,-52.76
610.1981,-53.04
610.2981,-52.01
610.3981,-51.63
610.4981,-51.54
610.5981,-50.69
610.6981,-50.59
610.7981,-51.35
610.8981,-52.19
610.9981,-52.85
611.0981,-52.19
611.1981,-53.7
611.2981,-54.64
611.3981,-53.14
611.4981,-52.95
611.5981,-53.23
611.6981,-52.76
611.7981,-52.85
611.8981,-52.19
611.9981,-53.23
612.0981,-54.45
612.1981,-53.32
612.2981,-53.14
612.3981,-53.89
612.4981,-53.23
612.5981,-51.91
612.6981,-50.5
612.7981,-51.16
612.8981,-51.07
612.9981,-52.01
613.0981,-51.25
613.1981,-50.5
613.2981,-52.85
613.3981,-53.14
613.4981,-51.91
613.5981,-53.14
613.6981,-52.67
613.7981,-51.07
613.8981,-51.63
613.9981,-52.38
614.0981,-52.29
614.1981,-51.63
614.2981,-52.38
614.3981,-51.91
614.4981,-52.38
614.5981,-53.23
614.6981,-52.19
614.7981,-53.61
614.8981,-52.85
614.9981,-53.14
615.0981,-53.32
615.1981,-51.82
615.2981,-51.35
615.3981,-53.04
615.4981,-52.29
615.5981,-51.63
615.6981,-52.85
615.7981,-52.48
615.8981,-51.07
615.9981,-51.16
616.0981,-51.44
616.1981,-51.35
616.2981,-51.72
616.3981,-51.54
616.4981,-52.38
616.5981,-53.04
616.6981,-52.19
616.7981,-51.44
616.8981,-52.01
616.9981,-52.95
617.0981,-53.89
617.1981,-53.32
617.2981,-52.1
617.3981,-51.25
617.4981,-52.01
617.5981,-51.25
617.6981,-51.07
617.7981,-52.01
617.8981,-52.19
617.9981,-52.19
618.0981,-53.79
618.1981,-54.08
618.2981,-52.67
618.3981,-52.1
618.4981,-53.32
618.5981,-52.38
618.6981,-51.44
618.7981,-50.97
618.8981,-52.01
618.9981,-53.89
619.0981,-52.85
619.1981,-52.67
619.2981,-52.01
619.3981,-53.51
619.4981,-53.32
619.5981,-52.48
619.6981,-52.67
619.7981,-52.57
619.8981,-52.85
619.9981,-51.72
620.0980999999999,-53.79
620.1981000000001,-53.42
620.2981,-51.25
620.3981,-50.22
620.4981,-52.29
620.5980999999999,-53.42
620.6981000000001,-53.14
620.7981,-53.89
620.8981,-53.32
620.9981,-52.95
621.0980999999999,-52.76
621.1981000000001,-53.14
621.2981,-53.04
621.3981,-54.45
621.4981,-54.08
621.5980999999999,-53.04
621.6981000000001,-52.48
621.7981,-52.38
621.8981,-51.16
621.9981,-51.25
622.0980999999999,-52.38
622.1981000000001,-52.76
622.2981,-52.01
622.3981,-52.29
622.4981,-52.01
622.5980999999999,-51.91
622.6981000000001,-52.1
622.7981,-51.63
622.8981,-51.16
622.9981,-51.07
623.0980999999999,-50.5
623.1981000000001,-50.5
623.2981,-50.12
623.3981,-50.78
623.4981,-52.1
623.5980999999999,-52.85
623.6981000000001,-51.72
623.7981,-50.41
623.8981,-51.35
623.9981,-52.57
624.0980999999999,-53.14
624.1981000000001,-52.29
624.2981,-51.44
624.3981,-51.91
624.4981,-51.54
624.5980999999999,-51.35
624.6981000000001,-51.16
624.7981,-51.82
624.8981,-52.1
624.9981,-51.54
625.0980999999999,-52.19
625.1981000000001,-53.23
625.2981,-52.38
625.3981,-52.67
625.4981,-53.04
625.5980999999999,-52.1
625.6981000000001,-52.95
625.7981,-53.7
625.8981,-54.55
625.9981,-53.14
626.0980999999999,-53.04
626.1981000000001,-53.04
626.2981,-51.82
626.3981,-50.59
626.4981,-51.91
626.5980999999999,-51.44
626.6981000000001,-51.72
626.7981,-51.82
626.8981,-52.67
626.9981,-50.88
627.0980999999999,-50.12
627.1981000000001,-50.69
627.2981,-52.19
627.3981,-51.91
627.4981,-51.63
627.5980999999999,-50.78
627.6981000000001,-51.25
627.7981,-50.97
627.8981,-50.69
627.9981,-52.1
628.0980999999999,-53.61
628.1981000000001,-52.38
628.2981,-52.48
628.3981,-53.79
628.4981,-53.51
628.5980999999999,-53.14
628.6981000000001,-52.85
628.7981,-52.76
628.8981,-52.57
628.9981,-53.51
629.0980999999999,-52.48
629.1981000000001,-53.23
629.2981,-51.72
629.3981,-52.67
629.4981,-52.95
629.5980999999999,-53.7
629.6981000000001,-52.48
629.7981,-51.54
629.8981,-51.54
629.9981,-51.25
630.0980999999999,-53.04
630.1981000000001,-52.67
630.2981,-52.95
630.3981,-54.08
630.4981,-54.64
630.5980999999999,-52.29
630.6981000000001,-52.95
630.7981,-51.82
630.8981,-52.76
630.9981,-53.61
631.0980999999999,-54.27
631.1981000000001,-53.23
631.2981,-51.44
631.3981,-50.5
631.4981,-50.5
631.5980999999999,-51.07
631.6981000000001,-51.82
631.7981,-53.14
631.8981,-54.17
631.9981,-51.25
632.0980999999999,-51.72
632.1981000000001,-53.32
632.2981,-52.95
632.3981,-52.67
632.4981,-53.14
632.5980999999999,-52.29
632.6981000000001,-51.91
632.7981,-53.7
632.8981,-54.45
632.9981,-53.04
633.0980999999999,-53.23
633.1981000000001,-52.85
633.2981,-53.14
633.3981,-53.79
633.4981,-52.19
633.5980999999999,-53.32
633.6981000000001,-53.23
633.7981,-51.91
633.8981,-51.82
633.9981,-51.54
634.0980999999999,-52.01
634.1981000000001,-52.38
634.2981,-52.48
634.3981,-52.67
634.4981,-52.95
634.5980999999999,-52.95
634.6981000000001,-52.29
634.7981,-52.1
634.8981,-52.38
634.9981,-51.35
635.0980999999999,-51.82
635.1981000000001,-53.04
635.2981,-53.7
635.3981,-53.14
635.4981,-52.19
635.5980999999999,-51.25
635.6981000000001,-51.54
635.7981,-51.82
635.8981,-51.82
635.9981,-51.44
636.0980999999999,-52.48
636.1981000000001,-52.85
636.2981,-51.91
636.3981,-52.19
636.4981,-52.38
636.5980999999999,-51.72
636.6981000000001,-51.16
636.7981,-51.07
636.8981,-51.54
636.9981,-52.95
637.0980999999999,-53.51
637.1981000000001,-52.95
637.2981,-52.57
637.3981,-52.85
637.4981,-53.89
637.5980999999999,-53.79
637.6981000000001,-54.08
637.7981,-53.7
637.8981,-53.79
637.9981,-52.67
638.0980999999999,-54.27
638.1981000000001,-52.38
638.2981,-50.59
638.3981,-51.82
638.4981,-54.83
638.5980999999999,-54.08
638.6981000000001,-52.1
638.7981,-51.72
638.8981,-52.38
638.9981,-51.72
639.0980999999999,-51.54
639.1981000000001,-52.1
639.2981,-52.1
639.3981,-52.29
639.4981,-51.25
639.5980999999999,-51.82
639.6981000000001,-51.82
639.7981,-51.54
639.8981,-52.57
639.9981,-52.85
640.0980999999999,-51.72
640.1981000000001,-50.69
640.2981,-51.25
640.3981,-51.07
640.4981,-50.59
640.5980999999999,-51.54
640.6981000000001,-51.25
640.7981,-50.88
640.8981,-51.44
640.9981,-51.63
641.0980999999999,-52.1
641.1981000000001,-53.51
641.2981,-54.92
641.3981,-53.14
641.4981,-53.23
641.5980999999999,-52.48
641.6981000000001,-52.38
641.7981,-54.17
641.8981,-53.32
641.9981,-53.32
642.0980999999999,-53.7
642.1981000000001,-53.89
642.2981,-54.17
642.3981,-53.04
642.4981,-51.35
642.5980999999999,-50.88
642.6981000000001,-52.1
642.7981,-52.76
642.8981,-52.38
642.9981,-52.76
643.0980999999999,-51.44
643.1981000000001,-51.54
643.2981,-52.01
643.3981,-52.38
643.4981,-51.82
643.5980999999999,-52.38
643.6981000000001,-52.19
643.7981,-51.63
643.8981,-52.67
643.9981,-52.01
644.0980999999999,-52.38
644.1981000000001,-53.04
644.2981,-51.35
644.3981,-51.54
644.4981,-51.07
644.5980999999999,-51.91
644.6981000000001,-53.42
644.7981,-51.82
644.8981,-51.63
644.9981,-51.91
645.0980999999999,-52.19
645.1981000000001,-51.63
645.2981,-51.16
645.3981,-52.1
645.4981,-52.01
645.5980999999999,-52.38
645.6981000000001,-53.32
645.7981,-52.57
645.8981,-52.38
645.9981,-51.91
646.0980999999999,-52.29
646.1981000000001,-53.51
646.2981,-53.51
646.3981,-52.76
646.4981,-52.29
646.5980999999999,-52.95
646.6981000000001,-54.36
646.7981,-54.83
646.8981,-52.85
646.9981,-51.44
647.0980999999999,-52.67
647.1981000000001,-52.57
647.2981,-50.69
647.3981,-51.16
647.4981,-51.44
647.5980999999999,-51.35
647.6981000000001,-50.5
647.7981,-51.54
647.8981,-51.54
647.9981,-52.19
648.0980999999999,-52.67
648.1981000000001,-50.31
648.2981,-50.12
648.3981,-51.63
648.4981,-51.25
648.5980999999999,-49.94
648.6981000000001,-51.25
648.7981,-51.91
648.8981,-51.91
648.9981,-51.54
649.0980999999999,-52.29
649.1981000000001,-51.91
649.2981,-52.67
649.3981,-54.27
649.4981,-54.17
649.5980999999999,-53.7
649.6981000000001,-54.08
649.7981,-53.51
649.8981,-51.63
649.9981,-52.1
650.0980999999999,-51.35
650.1981000000001,-51.35
650.2981,-52.48
650.3981,-52.29
650.4981,-51.35
650.5980999999999,-52.01
650.6981000000001,-53.42
650.7981,-53.14
650.8981,-52.1
650.9981,-52.29
651.0980999999999,-52.29
651.1981000000001,-52.1
651.2981,-51.82
651.3981,-52.48
651.4981,-54.08
651.5980999999999,-52.48
651.6981000000001,-51.63
651.7981,-52.19
651.8981,-53.14
651.9981,-52.67
652.0980999999999,-51.25
652.1981000000001,-51.63
652.2981,-52.48
652.3981,-52.57
652.4981,-51.82
652.5980999999999,-51.44
652.6981000000001,-51.91
652.7981,-51.72
652.8981,-51.82
652.9981,-51.44
653.0980999999999,-52.38
653.1981000000001,-53.14
653.2981,-52.29
653.3981,-51.44
653.4981,-52.19
653.5980999999999,-52.57
653.6981000000001,-52.95
653.7981,-53.14
653.8981,-52.57
653.9981,-52.29
654.0980999999999,-51.82
654.1981000000001,-52.48
654.2981,-53.89
654.3981,-52.95
654.4981,-52.29
654.5980999999999,-52.95
654.6981000000001,-52.85
654.7981,-52.95
654.8981,-50.59
654.9981,-51.44
655.0980999999999,-52.76
655.1981000000001,-53.14
655.2981,-53.14
655.3981,-51.72
655.4981,-51.82
655.5980999999999,-51.35
655.6981000000001,-52.95
655.7981,-52.85
655.8981,-52.48
655.9981,-53.7
656.0980999999999,-53.23
656.1981000000001,-51.25
656.2981,-50.97
656.3981,-51.91
656.4981,-51.16
656.5980999999999,-51.44
656.6981000000001,-51.35
656.7981,-50.22
656.8981,-50.22
656.9981,-50.78
657.0980999999999,-51.16
657.1981000000001,-52.76
657.2981,-54.64
657.3981,-52.57
657.4981,-51.44
657.5980999999999,-52.01
657.6981000000001,-52.67
657.7981,-52.19
657.8981,-53.51
657.9981,-52.67
658.0980999999999,-52.76
658.1981000000001,-52.67
658.2981,-52.67
658.3981,-52.76
658.4981,-53.51
658.5980999999999,-52.76
658.6981000000001,-52.67
658.7981,-51.63
658.8981,-51.72
658.9981,-53.51
659.0980999999999,-51.54
659.1981000000001,-50.97
659.2981,-51.82
659.3981,-51.35
659.4981,-52.48
659.5980999999999,-51.91
659.6981000000001,-51.16
659.7981,-51.07
659.8981,-51.63
659.9981,-50.97
660.0980999999999,-51.82
660.1981000000001,-52.48
660.2981,-52.95
660.3981,-53.32
660.4981,-51.82
660.5980999999999,-50.31
660.6981000000001,-51.54
660.7981,-52.76
660.8981,-52.01
660.9981,-50.12
661.0980999999999,-50.69
661.1981000000001,-52.01
661.2981,-52.19
661.3981,-52.57
661.4981,-51.63
661.5980999999999,-50.88
661.6981000000001,-52.85
661.7981,-53.32
661.8981,-54.36
661.9981,-52.38
662.0980999999999,-53.32
662.1981000000001,-54.55
662.2981,-53.23
662.3981,-52.85
662.4981,-55.39
662.5980999999999,-53.61
662.6981000000001,-52.67
662.7981,-53.7
662.8981,-52.85
662.9981,-52.29
663.0980999999999,-51.72
663.1981000000001,-51.35
663.2981,-50.88
663.3981,-50.59
663.4981,-50.97
663.5980999999999,-51.07
663.6981000000001,-51.25
663.7981,-52.57
663.8981,-52.1
663.9981,-50.22
664.0980999999999,-52.57
664.1981000000001,-52.48
664.2981,-52.57
664.3981,-52.1
664.4981,-51.82
664.5980999999999,-53.89
664.6981000000001,-53.23
664.7981,-50.59
664.8981,-50.88
664.9981,-53.79
665.0980999999999,-52.38
665.1981000000001,-51.63
665.2981,-53.61
665.3981,-53.23
665.4981,-53.14
665.5980999999999,-51.44
665.6981000000001,-49.75
665.7981,-52.29
665.8981,-51.91
665.9981,-50.78
666.0980999999999,-51.35
666.1981000000001,-53.14
666.2981,-52.57
666.3981,-52.57
666.4981,-53.04
666.5980999999999,-52.19
666.6981000000001,-51.91
666.7981,-53.04
666.8981,-51.54
666.9981,-51.54
667.0980999999999,-52.01
667.1981000000001,-53.23
667.2981,-53.51
667.3981,-51.82
667.4981,-51.72
667.5980999999999,-50.22
667.6981000000001,-49.65
667.7981,-51.25
667.8981,-50.78
667.9981,-53.23
668.0980999999999,-52.95
668.1981000000001,-52.48
668.2981,-52.19
668.3981,-52.57
668.4981,-51.07
668.5980999999999,-51.63
668.6981000000001,-50.97
668.7981,-50.78
668.8981,-52.19
668.9981,-52.67
669.0980999999999,-51.91
669.1981000000001,-51.72
669.2981,-52.38
669.3981,-52.19
669.4981,-52.95
669.5980999999999,-52.38
669.6981000000001,-50.97
669.7981,-50.78
669.8981,-50.5
669.9981,-51.63
670.0980999999999,-51.63
670.1981000000001,-51.72
670.2981,-50.5
670.3981,-50.41
670.4981,-51.91
670.5980999999999,-52.1
670.6981000000001,-51.35
670.7981,-51.35
670.8981,-51.63
670.9981,-52.38
671.0980999999999,-53.42
671.1981000000001,-52.76
671.2981,-52.76
671.3981,-52.1
671.4981,-51.44
671.5980999999999,-52.38
671.6981000000001,-52.48
671.7981,-52.48
671.8981,-51.35
671.9981,-51.72
672.0980999999999,-53.04
672.1981000000001,-52.48
672.2981,-50.97
672.3981,-51.91
672.4981,-53.04
672.5980999999999,-52.19
672.6981000000001,-51.82
672.7981,-52.1
672.8981,-52.38
672.9981,-52.29
673.0980999999999,-52.57
673.1981000000001,-51.44
673.2981,-50.78
673.3981,-50.69
673.4981,-51.91
673.5980999999999,-52.19
673.6981000000001,-52.57
673.7981,-51.35
673.8981,-50.59
673.9981,-50.78
674.0980999999999,-51.91
674.1981000000001,-51.54
674.2981,-51.91
674.3981,-52.48
674.4981,-52.29
674.5980999999999,-51.16
674.6981000000001,-52.19
674.7981,-52.95
674.8981,-53.14
674.9981,-52.19
675.0980999999999,-52.38
675.1981000000001,-51.91
675.2981,-51.16
675.3981,-51.72
675.4981,-52.1
675.5980999999999,-52.95
675.6981000000001,-51.82
675.7981,-53.04
675.8981,-53.23
675.9981,-53.42
676.0980999999999,-53.98
676.1981000000001,-53.14
676.2981,-53.7
676.3981,-52.95
676.4981,-52.01
676.5980999999999,-52.29
676.6981000000001,-50.78
676.7981,-51.63
676.8981,-52.95
676.9981,-52.67
677.0980999999999,-50.78
677.1981000000001,-50.97
677.2981,-52.76
677.3981,-51.54
677.4981,-49.18
677.5980999999999,-48.81
677.6981000000001,-49.47
677.7981,-49.84
677.8981,-51.25
677.9981,-52.38
678.0980999999999,-52.19
678.1981000000001,-51.35
678.2981,-52.48
678.3981,-52.19
678.4981,-51.82
678.5980999999999,-51.63
678.6981000000001,-50.88
678.7981,-51.54
678.8981,-52.48
678.9981,-51.72
679.0980999999999,-51.63
679.1981000000001,-52.67
679.2981,-52.38
679.3981,-52.76
679.4981,-52.29
679.5980999999999,-53.32
679.6981000000001,-53.79
679.7981,-51.63
679.8981,-52.85
679.9981,-52.95
680.0980999999999,-52.48
680.1981000000001,-52.48
680.2981,-53.23
680.3981,-53.32
680.4981,-53.14
680.5980999999999,-52.57
680.6981000000001,-52.48
680.7981,-52.67
680.8981,-51.35
680.9981,-51.07
681.0980999999999,-51.82
681.1981000000001,-51.82
681.2981,-51.54
681.3981,-51.35
681.4981,-50.88
681.5980999999999,-51.44
681.6981000000001,-51.54
681.7981,-51.16
681.8981,-51.16
681.9981,-52.29
682.0980999999999,-51.63
682.1981000000001,-51.82
682.2981,-51.72
682.3981,-51.44
682.4981,-51.82
682.5980999999999,-52.67
682.6981000000001,-53.14
682.7981,-52.95
682.8981,-51.54
682.9981,-51.63
